File: MEX1_29686_processed.xdi
# XDI/1.0
# Mono.d_spacing: 3.13897
# Reference.Element: Hf
# ROI.start_bin: nan
# ROI.end_bin: nan
# Element.symbol: None
# Element.edge: None
# Processing.version: spec_processing_library v0.3.5
# Column.1: energy
# Column.2: bragg
# Column.3: count_time seconds
# Column.4: i0
# Column.5: i1
# Column.6: i2
# Describe.Column.1: energy - MEX1ES01ZEB01:CALC_ENERGY_EV
# Describe.Column.2: bragg - MEX1ES01ZEB01:BRAGG_WITH_OFFSET
# Describe.Column.3: count_time - MEX1ES01ZEB01:GATE_TIME_SET
# Describe.Column.4: i0 - MEX1ES01DAQ01:ch1:S:MeanValue_RBV
# Describe.Column.5: i1 - MEX1ES01DAQ01:ch2:S:MeanValue_RBV
# Describe.Column.6: i2 - MEX1ES01DAQ01:ch3:S:MeanValue_RBV
# Samples: [417, 417, 417, 417, 417, 417]
# ///
# Hf foil
#
# xdi from default mda2xdi preset for mex1.
#--------
#  energy   bragg   count_time   i0   i1   i2
 9360.42  12.1802  1.0  2.90663  2.3546  4.67037
 9390.44  12.1406  1  2.88787  2.34404  4.69073
 9420.44  12.1014  1.0  2.86901  2.3333  4.70929
 9450.43  12.0624  1  2.84995  2.32237  4.72584
 9480.43  12.0237  1.0  2.83137  2.31157  4.73824
 9510.43  11.9852  1  2.8127  2.30068  4.7345
 9540.42  11.9469  1.0  2.79417  2.28977  4.5867
 9541.16  11.946  1  2.79357  2.28944  4.57302
 9541.91  11.945  1.0  2.79286  2.28893  4.55769
 9542.66  11.9441  1  2.7923  2.28862  4.54057
 9543.41  11.9431  1.0  2.79172  2.28826  4.52102
 9544.16  11.9422  1  2.79107  2.28783  4.49981
 9544.91  11.9412  1.0  2.79046  2.28742  4.47539
 9545.66  11.9403  1  2.78983  2.28705  4.44787
 9546.41  11.9393  1.0  2.78927  2.28668  4.41646
 9547.16  11.9384  1  2.78871  2.28629  4.38002
 9547.91  11.9374  1.0  2.78807  2.28593  4.33854
 9548.66  11.9365  1  2.78737  2.28551  4.28922
 9549.41  11.9355  1.0  2.7869  2.28519  4.23191
 9550.16  11.9346  1  2.78627  2.28476  4.16433
 9550.91  11.9336  1.0  2.78555  2.28428  4.08234
 9551.66  11.9327  1  2.78496  2.28396  3.98426
 9552.41  11.9317  1.0  2.78448  2.28351  3.86301
 9553.16  11.9308  1  2.78376  2.28308  3.71206
 9553.91  11.9298  1.0  2.78318  2.28268  3.52373
 9554.66  11.9289  1  2.78931  2.28787  3.29238
 9555.41  11.9279  1.0  2.78873  2.28752  2.98977
 9556.16  11.927  1  2.78817  2.28714  2.61289
 9556.91  11.926  1.0  2.78745  2.28671  2.1664
 9557.66  11.9251  1  2.78683  2.2863  1.69509
 9558.41  11.9241  1.0  2.78626  2.28592  1.26676
 9559.16  11.9232  1  2.78553  2.28545  0.949995
 9559.91  11.9222  1.0  2.78507  2.28516  0.755319
 9560.66  11.9213  1  2.78436  2.2847  0.647215
 9561.41  11.9203  1.0  2.78356  2.28424  0.587629
 9562.16  11.9194  1  2.78326  2.28392  0.556361
 9562.91  11.9184  1.0  2.7823  2.28329  0.552437
 9563.66  11.9175  1  2.78189  2.28313  0.58449
 9564.41  11.9165  1.0  2.78134  2.28272  0.657994
 9565.16  11.9156  1  2.78025  2.28202  0.767644
 9565.91  11.9146  1.0  2.78015  2.28193  0.89754
 9566.66  11.9137  1  2.77956  2.28157  1.02883
 9567.41  11.9127  1.0  2.77834  2.2807  1.14815
 9568.16  11.9118  1  2.77826  2.28068  1.25277
 9568.91  11.9108  1.0  2.77768  2.28037  1.33954
 9569.66  11.9099  1  2.77703  2.27996  1.40885
 9570.41  11.9089  1.0  2.77646  2.27958  1.46341
 9571.16  11.908  1  2.77596  2.27933  1.50914
 9571.91  11.9071  1.0  2.77527  2.27882  1.55337
 9572.66  11.9061  1  2.77458  2.27837  1.60148
 9573.41  11.9052  1.0  2.7741  2.278  1.65511
 9574.16  11.9042  1  2.77338  2.27761  1.71258
 9574.91  11.9033  1.0  2.7728  2.27723  1.77013
 9575.66  11.9023  1  2.77219  2.27672  1.82239
 9576.41  11.9014  1.0  2.77142  2.27626  1.86703
 9577.16  11.9004  1  2.77089  2.27595  1.90159
 9577.91  11.8995  1.0  2.77023  2.27548  1.92526
 9578.66  11.8985  1  2.76954  2.27506  1.93806
 9579.41  11.8976  1.0  2.76906  2.2747  1.94214
 9580.16  11.8967  1  2.76815  2.27408  1.93928
 9580.91  11.8957  1.0  2.76782  2.2739  1.93317
 9581.66  11.8948  1  2.76696  2.27333  1.92598
 9582.41  11.8938  1.0  2.76634  2.27305  1.92068
 9583.16  11.8929  1  2.76583  2.27262  1.91808
 9583.91  11.8919  1.0  2.76493  2.27209  1.91847
 9584.66  11.891  1  2.76456  2.27177  1.92095
 9585.41  11.89  1.0  2.76393  2.27135  1.92465
 9586.16  11.8891  1  2.7634  2.27111  1.92858
 9586.91  11.8882  1.0  2.7628  2.2707  1.93246
 9587.66  11.8872  1  2.76224  2.27032  1.93685
 9588.4  11.8863  1.0  2.76148  2.26977  1.94195
 9589.16  11.8853  1  2.76736  2.27479  1.95329
 9589.91  11.8844  1.0  2.76683  2.27442  1.96118
 9590.66  11.8834  1  2.76616  2.27402  1.97039
 9591.41  11.8825  1.0  2.76564  2.27366  1.97966
 9592.16  11.8816  1  2.76492  2.27317  1.98814
 9592.9  11.8806  1.0  2.76429  2.27273  1.99479
 9593.65  11.8797  1  2.76367  2.27236  1.99895
 9594.41  11.8787  1.0  2.76297  2.27192  2.00073
 9595.15  11.8778  1  2.76243  2.27147  2.00021
 9595.91  11.8768  1.0  2.76181  2.27116  1.99828
 9596.65  11.8759  1  2.76098  2.27058  1.99495
 9597.4  11.875  1.0  2.76055  2.27031  1.99137
 9598.15  11.874  1  2.75998  2.26987  1.98755
 9598.9  11.8731  1.0  2.75911  2.26933  1.98365
 9599.65  11.8721  1  2.75866  2.26905  1.9804
 9600.4  11.8712  1.0  2.75809  2.26869  1.97727
 9601.15  11.8703  1  2.75741  2.26816  1.97422
 9601.9  11.8693  1.0  2.75681  2.26783  1.97138
 9602.65  11.8684  1  2.75613  2.26739  1.96827
 9603.4  11.8674  1.0  2.75554  2.26699  1.96474
 9604.15  11.8665  1  2.75504  2.26667  1.96099
 9604.9  11.8656  1.0  2.75438  2.26623  1.95695
 9605.65  11.8646  1  2.75369  2.26576  1.95313
 9606.4  11.8637  1.0  2.75318  2.26548  1.94948
 9607.15  11.8627  1  2.75239  2.26495  1.94625
 9607.9  11.8618  1.0  2.75187  2.2646  1.94353
 9608.65  11.8609  1  2.7513  2.26418  1.94121
 9609.4  11.8599  1.0  2.75066  2.26373  1.93919
 9610.15  11.859  1  2.75004  2.26338  1.93759
 9630.41  11.8337  1.0  2.73721  2.25563  2.00501
 9660.41  11.7964  1  2.71814  2.2438  1.93832
 9690.4  11.7594  1.0  2.69847  2.23151  1.97567
 9720.4  11.7226  1  2.68019  2.22029  1.98888
 9750.39  11.686  1.0  2.66142  2.20847  1.98052
 9780.39  11.6496  1  2.6387  2.19326  2.00427
 9810.38  11.6135  1.0  2.62561  2.18612  2.00385
 9840.38  11.5776  1  2.60631  2.17363  2.02359
 9870.38  11.542  1.0  2.58891  2.16255  2.04258
 9900.38  11.5065  1  2.57083  2.15089  2.04216
 9930.37  11.4713  1.0  2.55279  2.13929  2.07139
 9960.37  11.4363  1  2.53202  2.12518  2.06918
 9990.36  11.4015  1.0  2.48643  2.09012  2.06664
 10020.4  11.3669  1  2.46331  2.07395  2.07786
 10050.4  11.3325  1.0  2.48909  2.09876  2.12283
 10080.3  11.2984  1  2.47147  2.087  2.14086
 10110.3  11.2644  1.0  2.4537  2.07509  2.15955
 10140.3  11.2306  1  2.43608  2.06312  2.1646
 10170.3  11.1971  1.0  2.4184  2.0511  2.18332
 10200.3  11.1637  1  2.4005  2.03882  2.1998
 10230.3  11.1306  1.0  2.38229  2.02619  2.20912
 10260.3  11.0976  1  2.35903  2.00926  2.21653
 10290.3  11.0649  1.0  2.34938  2.00377  2.24045
 10320.3  11.0323  1  2.33217  1.99175  2.25444
 10350.3  10.9999  1.0  2.31501  1.97976  2.26563
 10380.3  10.9677  1  2.29766  1.96759  2.27852
 10410.3  10.9357  1.0  2.28046  1.95544  2.29389
 10440.3  10.9039  1  2.26366  1.94346  2.30611
 10470.3  10.8723  1.0  2.24691  1.93152  2.31835
 10500.3  10.8409  1  2.23016  1.91956  2.33059
 10530.3  10.8096  1.0  2.21227  1.90657  2.3433
 10560.3  10.7786  1  2.19678  1.89554  2.35701
 10590.3  10.7477  1.0  2.18059  1.88383  2.36937
 10620.3  10.717  1  2.16385  1.87171  2.3815
 10650.3  10.6864  1.0  2.14738  1.8597  2.39452
 10680.3  10.6561  1  2.12602  1.84334  2.40138
 10710.3  10.6259  1.0  2.11569  1.83649  2.40853
 10740.3  10.5958  1  2.09979  1.82475  0.866134
 10770.3  10.566  1.0  2.08381  1.81295  1.61586
 10790.3  10.5462  1.0  2.07287  1.80482  1.59495