File: MEX1_29696_processed.xdi
# XDI/1.0
# Mono.d_spacing: 3.13897
# Reference.Element: Ni
# ROI.start_bin: nan
# ROI.end_bin: nan
# Element.symbol: None
# Element.edge: None
# Processing.version: spec_processing_library v0.3.5
# Column.1: energy
# Column.2: bragg
# Column.3: count_time seconds
# Column.4: i0
# Column.5: i1
# Column.6: i2
# Describe.Column.1: energy - MEX1ES01ZEB01:CALC_ENERGY_EV
# Describe.Column.2: bragg - MEX1ES01ZEB01:BRAGG_WITH_OFFSET
# Describe.Column.3: count_time - MEX1ES01ZEB01:GATE_TIME_SET
# Describe.Column.4: i0 - MEX1ES01DAQ01:ch1:S:MeanValue_RBV
# Describe.Column.5: i1 - MEX1ES01DAQ01:ch2:S:MeanValue_RBV
# Describe.Column.6: i2 - MEX1ES01DAQ01:ch3:S:MeanValue_RBV
# Samples: [417, 417, 417, 417, 417, 417]
# ///
# Ni foil
#
# xdi from default mda2xdi preset for mex1.
#--------
#  energy   bragg   count_time   i0   i1   i2
 8132.57  14.0543  1.0  3.76643  2.73261  2.46504
 8162.58  14.0016  1  3.74164  2.72414  2.47812
 8192.57  13.9493  1.0  3.71762  2.71609  2.49291
 8222.57  13.8973  1  3.69362  2.70783  2.50673
 8252.57  13.8458  1.0  3.67016  2.69972  2.51857
 8282.56  13.7947  1  3.64564  2.69069  2.52567
 8312.56  13.7439  1.0  3.63054  2.68839  2.52484
 8313.31  13.7427  1  3.62981  2.68801  2.52375
 8314.06  13.7414  1.0  3.62918  2.68775  2.52264
 8314.81  13.7401  1  3.62812  2.68723  2.52118
 8315.56  13.7389  1.0  3.62759  2.68697  2.51963
 8316.31  13.7376  1  3.62673  2.68659  2.51795
 8317.06  13.7363  1.0  3.62603  2.68632  2.51624
 8317.81  13.7351  1  3.62513  2.68584  2.51419
 8318.56  13.7338  1.0  3.62442  2.68553  2.51195
 8319.31  13.7326  1  3.62364  2.68527  2.50943
 8320.06  13.7313  1.0  3.62288  2.68491  2.50664
 8320.81  13.73  1  3.62216  2.68454  2.50351
 8321.55  13.7288  1.0  3.62138  2.68421  2.4999
 8322.31  13.7275  1  3.62055  2.68386  2.49568
 8323.06  13.7262  1.0  3.61994  2.68351  2.49101
 8323.81  13.725  1  3.61906  2.6831  2.4853
 8324.56  13.7237  1.0  3.61832  2.6827  2.47852
 8325.3  13.7225  1  3.6175  2.68229  2.47021
 8326.05  13.7212  1.0  3.61681  2.68205  2.45981
 8326.81  13.7199  1  3.61607  2.68172  2.44645
 8327.55  13.7187  1.0  3.61513  2.68131  2.4281
 8328.3  13.7174  1  3.61449  2.68094  2.40153
 8329.05  13.7162  1.0  3.61368  2.68065  2.35829
 8329.8  13.7149  1  3.61298  2.6803  2.27627
 8330.55  13.7136  1.0  3.61212  2.67994  2.11185
 8331.3  13.7124  1  3.61126  2.67941  1.86812
 8332.05  13.7111  1.0  3.61046  2.67903  1.62939
 8332.8  13.7099  1  3.60957  2.67863  1.44454
 8333.55  13.7086  1.0  3.60872  2.67818  1.31558
 8334.3  13.7074  1  3.60787  2.67782  1.2361
 8335.05  13.7061  1.0  3.60714  2.67757  1.18774
 8335.8  13.7048  1  3.60627  2.67716  1.15196
 8336.55  13.7036  1.0  3.60547  2.6768  1.11015
 8337.3  13.7023  1  3.60472  2.67633  1.053
 8338.05  13.7011  1.0  3.60384  2.67595  0.992541
 8338.8  13.6998  1  3.60306  2.67559  0.941781
 8339.55  13.6986  1.0  3.60223  2.67514  0.897767
 8340.3  13.6973  1  3.60147  2.67478  0.851191
 8341.05  13.696  1.0  3.6006  2.67438  0.795735
 8341.8  13.6948  1  3.59978  2.67401  0.731149
 8342.55  13.6935  1.0  3.59898  2.67354  0.661394
 8343.3  13.6923  1  3.60693  2.67971  0.5934
 8344.05  13.691  1.0  3.60597  2.67923  0.527427
 8344.8  13.6898  1  3.60528  2.679  0.467967
 8345.55  13.6885  1.0  3.60449  2.67859  0.417692
 8346.3  13.6873  1  3.60362  2.67811  0.379785
 8347.05  13.686  1.0  3.60293  2.67788  0.355899
 8347.8  13.6848  1  3.60214  2.67744  0.34412
 8348.55  13.6835  1.0  3.60109  2.67692  0.34056
 8349.3  13.6823  1  3.6004  2.6766  0.342603
 8350.05  13.681  1.0  3.59957  2.67618  0.34801
 8350.8  13.6797  1  3.59881  2.67585  0.354927
 8351.55  13.6785  1.0  3.59791  2.6754  0.360908
 8352.3  13.6772  1  3.59726  2.67508  0.36349
 8353.05  13.676  1.0  3.59639  2.67469  0.36036
 8353.8  13.6747  1  3.59569  2.67438  0.351138
 8354.55  13.6735  1.0  3.59499  2.67406  0.33771
 8355.3  13.6722  1  3.59422  2.67372  0.324163
 8356.05  13.671  1.0  3.59346  2.67331  0.314515
 8356.8  13.6697  1  3.59269  2.67297  0.310925
 8357.55  13.6685  1.0  3.59219  2.6728  0.312873
 8358.3  13.6672  1  3.59133  2.67246  0.318314
 8359.05  13.666  1.0  3.59048  2.67198  0.324842
 8359.8  13.6647  1  3.58978  2.67175  0.330774
 8360.55  13.6635  1.0  3.58915  2.6714  0.335787
 8361.3  13.6622  1  3.58822  2.67097  0.340754
 8362.05  13.661  1.0  3.58767  2.67077  0.346883
 8362.8  13.6597  1  3.58688  2.67043  0.354351
 8363.55  13.6585  1.0  3.58604  2.67  0.362227
 8364.3  13.6572  1  3.58548  2.66966  0.369042
 8365.05  13.656  1.0  3.5846  2.66938  0.373942
 8365.8  13.6547  1  3.58385  2.66896  0.377139
 8366.55  13.6535  1.0  3.58309  2.66868  0.379327
 8367.3  13.6523  1  3.58235  2.66826  0.380922
 8368.05  13.651  1.0  3.5817  2.66796  0.382034
 8368.8  13.6498  1  3.58072  2.66755  0.382145
 8369.55  13.6485  1.0  3.58  2.66716  0.380905
 8370.3  13.6473  1  3.57931  2.66686  0.378098
 8371.05  13.646  1.0  3.57853  2.66652  0.37372
 8371.8  13.6448  1  3.57777  2.6662  0.367847
 8372.55  13.6435  1.0  3.57694  2.66577  0.360934
 8373.3  13.6423  1  3.57626  2.66546  0.353232
 8374.05  13.641  1.0  3.57547  2.66504  0.345052
 8374.8  13.6398  1  3.57465  2.66462  0.336544
 8375.55  13.6385  1.0  3.57406  2.66445  0.327878
 8376.3  13.6373  1  3.57333  2.66409  0.31913
 8377.05  13.6361  1.0  3.5726  2.66381  0.310568
 8377.8  13.6348  1  3.5803  2.66977  0.303202
 8378.55  13.6336  1.0  3.57956  2.66945  0.296031
 8379.3  13.6323  1  3.57888  2.66905  0.290164
 8380.05  13.6311  1.0  3.57801  2.66871  0.286022
 8380.8  13.6298  1  3.5773  2.66834  0.283852
 8381.55  13.6286  1.0  3.57663  2.66805  0.283659
 8382.3  13.6274  1  3.57574  2.66754  0.285252
 8402.55  13.5939  1.0  3.55993  2.66155  0.388031
 8432.55  13.5446  1  3.53722  2.65264  0.286772
 8462.55  13.4957  1.0  3.51414  2.64345  0.416992
 8492.54  13.4471  1  3.49125  2.63413  0.303411
 8522.54  13.3989  1.0  3.46824  2.62444  0.458793
 8552.54  13.351  1  3.44467  2.61433  0.383743
 8582.53  13.3035  1.0  3.40253  2.58985  0.345609
 8612.53  13.2563  1  3.04555  2.32464  0.390894
 8642.53  13.2095  1.0  3.38519  2.59123  0.422058
 8672.52  13.163  1  3.36502  2.58294  0.406158
 8702.52  13.1168  1.0  3.34254  2.57262  0.442866
 8732.52  13.0709  1  3.32041  2.56251  0.466816
 8762.51  13.0254  1.0  3.29887  2.55262  0.457089
 8792.51  12.9802  1  3.27737  2.54259  0.47212
 8822.51  12.9353  1.0  3.25613  2.53269  0.485749
 8852.5  12.8907  1  3.2351  2.52267  0.504889
 8882.5  12.8464  1.0  3.21394  2.51247  0.502787
 8912.5  12.8024  1  3.19048  2.5003  0.513198
 8942.49  12.7588  1.0  3.1738  2.49324  0.527955
 8972.49  12.7154  1  3.15213  2.48229  0.540226
 9002.49  12.6723  1.0  3.08935  2.43866  0.540615
 9032.48  12.6295  1  3.11157  2.46195  0.553229
 9062.48  12.5871  1.0  3.08814  2.44904  0.564309
 9092.48  12.5449  1  3.07011  2.44027  0.575801
 9122.47  12.5029  1.0  3.05013  2.42983  0.586606
 9152.47  12.4613  1  3.02434  2.41461  0.592458
 9182.46  12.4199  1.0  3.01312  2.41096  0.602554
 9212.46  12.3789  1  2.99208  2.3993  0.610759
 9242.46  12.338  1.0  2.97181  2.38811  0.62095
 9272.45  12.2975  1  2.9515  2.3768  0.630305
 9302.45  12.2572  1.0  2.93395  2.3676  0.638545
 9332.45  12.2172  1  2.9134  2.35575  0.645864
 9362.44  12.1775  1.0  2.89406  2.34486  0.654231
 9392.44  12.138  1  2.87458  2.33369  0.662471
 9422.43  12.0988  1.0  2.86108  2.32744  0.672451
 9452.43  12.0598  1  2.84159  2.31605  0.680931
 9482.43  12.0211  1.0  2.82225  2.30474  0.68854
 9512.42  11.9826  1  2.80279  2.29317  0.696186
 9542.42  11.9444  1.0  2.78371  2.28177  0.704123
 9562.42  11.919  1.0  2.77093  2.27414  0.709409