File: MEX1_29693_processed.xdi
# XDI/1.0
# Mono.d_spacing: 3.13897
# Reference.Element: Se
# ROI.start_bin: nan
# ROI.end_bin: nan
# Element.symbol: None
# Element.edge: None
# Processing.version: spec_processing_library v0.3.5
# Column.1: energy
# Column.2: bragg
# Column.3: count_time seconds
# Column.4: i0
# Column.5: i1
# Column.6: i2
# Describe.Column.1: energy - MEX1ES01ZEB01:CALC_ENERGY_EV
# Describe.Column.2: bragg - MEX1ES01ZEB01:BRAGG_WITH_OFFSET
# Describe.Column.3: count_time - MEX1ES01ZEB01:GATE_TIME_SET
# Describe.Column.4: i0 - MEX1ES01DAQ01:ch1:S:MeanValue_RBV
# Describe.Column.5: i1 - MEX1ES01DAQ01:ch2:S:MeanValue_RBV
# Describe.Column.6: i2 - MEX1ES01DAQ01:ch3:S:MeanValue_RBV
# Samples: [417, 417, 417, 417, 417, 417]
# ///
# Se foil
#
# xdi from default mda2xdi preset for mex1.
#--------
#  energy   bragg   count_time   i0   i1   i2
 12457  9.12212  1.0  2.67823  2.44649  4.50349
 12487  9.1  1  2.65083  2.42287  4.46975
 12517  9.07801  1.0  2.64078  2.41525  4.46434
 12547  9.05613  1  2.61766  2.39533  4.4358
 12577  9.03435  1.0  2.59408  2.37548  4.40455
 12607  9.01267  1  2.5703  2.35484  4.36595
 12637  8.9911  1.0  2.54635  2.33429  4.28254
 12637.7  8.99058  1  2.54565  2.33383  4.27758
 12638.5  8.99004  1.0  2.54481  2.33309  4.2718
 12639.2  8.98951  1  2.54416  2.33257  4.26559
 12640  8.98897  1.0  2.54343  2.33188  4.25905
 12640.7  8.98843  1  2.54271  2.33121  4.25203
 12641.5  8.98789  1.0  2.54183  2.33056  4.24366
 12642.2  8.98736  1  2.54127  2.33001  4.23476
 12643  8.98682  1.0  2.54054  2.32938  4.22493
 12643.7  8.98628  1  2.53975  2.32867  4.21395
 12644.5  8.98574  1.0  2.53907  2.3281  4.20072
 12645.2  8.98521  1  2.53819  2.32739  4.18558
 12646  8.98467  1.0  2.53763  2.32675  4.1686
 12646.7  8.98413  1  2.53693  2.32625  4.14802
 12647.5  8.98359  1.0  2.53618  2.32549  4.12349
 12648.2  8.98306  1  2.53546  2.32489  4.09385
 12649  8.98252  1.0  2.53473  2.32429  4.05747
 12649.7  8.98198  1  2.53405  2.32367  4.01194
 12650.5  8.98145  1.0  2.53337  2.32301  3.95425
 12651.2  8.98091  1  2.53247  2.32236  3.87845
 12652  8.98037  1.0  2.53174  2.32168  3.77617
 12652.7  8.97984  1  2.53114  2.3212  3.63339
 12653.5  8.9793  1.0  2.53039  2.32049  3.42592
 12654.2  8.97876  1  2.52961  2.31999  3.11779
 12655  8.97823  1.0  2.52887  2.31934  2.6707
 12655.7  8.97769  1  2.52812  2.31858  2.08952
 12656.5  8.97715  1.0  2.52753  2.31814  1.49346
 12657.2  8.97662  1  2.5267  2.31744  1.07915
 12658  8.97608  1.0  2.52599  2.31684  0.985984
 12658.7  8.97554  1  2.52526  2.31614  1.16396
 12659.5  8.97501  1.0  2.52446  2.31548  1.46744
 12660.2  8.97447  1  2.52392  2.31496  1.77862
 12661  8.97394  1.0  2.52313  2.3143  2.01205
 12661.7  8.9734  1  2.52232  2.31356  2.11695
 12662.5  8.97287  1.0  2.5217  2.31308  2.10217
 12663.2  8.97233  1  2.52088  2.31221  2.03176
 12664  8.9718  1.0  2.52574  2.31672  1.96651
 12664.7  8.97126  1  2.52502  2.31631  1.91718
 12665.5  8.97072  1.0  2.52447  2.31571  1.89113
 12666.2  8.97019  1  2.52359  2.31496  1.88624
 12667  8.96965  1.0  2.52285  2.31425  1.89002
 12667.7  8.96912  1  2.52224  2.31367  1.89177
 12668.5  8.96858  1.0  2.52153  2.31309  1.88887
 12669.2  8.96805  1  2.52071  2.31237  1.88303
 12670  8.96751  1.0  2.52008  2.31178  1.87753
 12670.7  8.96698  1  2.51938  2.31134  1.8747
 12671.5  8.96644  1.0  2.51827  2.31029  1.87558
 12672.2  8.96591  1  2.51784  2.30985  1.88184
 12673  8.96537  1.0  2.51725  2.3094  1.89292
 12673.7  8.96484  1  2.51654  2.3087  1.90625
 12674.4  8.9643  1.0  2.51575  2.30806  1.91905
 12675.2  8.96377  1  2.51507  2.30751  1.92994
 12676  8.96323  1.0  2.51429  2.30682  1.93791
 12676.7  8.9627  1  2.51359  2.30614  1.94382
 12677.5  8.96216  1.0  2.5129  2.30558  1.94804
 12678.2  8.96163  1  2.51199  2.30483  1.95024
 12678.9  8.96109  1.0  2.51129  2.30422  1.95141
 12679.7  8.96056  1  2.51065  2.30361  1.95123
 12680.4  8.96003  1.0  2.50993  2.30303  1.95046
 12681.2  8.95949  1  2.50928  2.3024  1.94912
 12681.9  8.95896  1.0  2.50843  2.30174  1.9483
 12682.7  8.95842  1  2.50787  2.30134  1.94814
 12683.4  8.95789  1.0  2.50698  2.30051  1.94801
 12684.2  8.95736  1  2.50641  2.29992  1.94766
 12684.9  8.95682  1.0  2.50553  2.29921  1.94736
 12685.7  8.95629  1  2.50493  2.29863  1.94702
 12686.4  8.95575  1.0  2.50412  2.29801  1.94631
 12687.2  8.95522  1  2.50348  2.29736  1.94563
 12687.9  8.95469  1.0  2.50255  2.29659  1.94465
 12688.7  8.95415  1  2.50191  2.2961  1.94403
 12689.4  8.95362  1.0  2.50114  2.2954  1.94332
 12690.2  8.95309  1  2.50053  2.29481  1.9425
 12690.9  8.95255  1.0  2.49982  2.29415  1.94161
 12691.7  8.95202  1  2.49895  2.29354  1.94029
 12692.4  8.95149  1.0  2.49829  2.29294  1.93895
 12693.2  8.95095  1  2.49771  2.29232  1.93678
 12693.9  8.95042  1.0  2.49685  2.29162  1.93451
 12694.7  8.94989  1  2.49611  2.29102  1.93179
 12695.4  8.94935  1.0  2.49972  2.29435  1.93256
 12696.2  8.94882  1  2.50085  2.2953  1.93154
 12696.9  8.94829  1.0  2.50005  2.29474  1.92927
 12697.7  8.94776  1  2.49936  2.29412  1.92726
 12698.4  8.94722  1.0  2.49863  2.29349  1.92589
 12699.2  8.94669  1  2.4979  2.29291  1.92501
 12699.9  8.94616  1.0  2.4971  2.29209  1.92491
 12700.7  8.94563  1  2.49638  2.29141  1.92522
 12701.4  8.94509  1.0  2.49574  2.29103  1.92677
 12702.2  8.94456  1  2.49504  2.2903  1.9291
 12702.9  8.94403  1.0  2.49424  2.2896  1.93219
 12703.7  8.9435  1  2.49348  2.2889  1.93623
 12704.4  8.94296  1.0  2.49287  2.28849  1.94081
 12705.2  8.94243  1  2.4921  2.28761  1.94544
 12705.9  8.9419  1.0  2.49149  2.28711  1.94982
 12706.7  8.94137  1  2.49077  2.28655  1.9537
 12727  8.92701  1.0  2.47458  2.27254  1.95317
 12756.9  8.90586  1  2.45173  2.25282  1.95672
 12787  8.88479  1.0  2.42864  2.2329  1.93549
 12816.9  8.86383  1  2.4052  2.21266  1.93309
 12846.9  8.84297  1.0  2.37992  2.1906  1.94885
 12876.9  8.82221  1  2.35815  2.17182  1.90649
 12906.9  8.80154  1.0  2.33449  2.15121  1.92361
 12936.9  8.78097  1  2.30334  2.12361  1.92239
 12966.9  8.7605  1.0  2.28699  2.10959  1.90068
 12996.9  8.74012  1  2.26575  2.09105  1.89869
 13026.9  8.71984  1.0  2.24225  2.07059  1.9109
 13056.9  8.69965  1  2.21839  2.04962  1.89721
 13086.9  8.67956  1.0  2.19454  2.02866  1.88163
 13116.9  8.65956  1  2.17094  2.00776  1.87897
 13146.9  8.63965  1.0  2.14759  1.98716  1.88027
 13176.9  8.61984  1  2.12387  1.96623  1.87122
 13206.9  8.60011  1.0  2.10047  1.94546  1.8574
 13236.875  8.58048  1  2.07692  1.92464  1.8495
 13266.9  8.56093  1.0  2.05295  1.90347  1.84473
 13296.9  8.54147  1  2.02886  1.88184  1.83713
 13326.9  8.52211  1.0  2.00348  1.85924  1.824
 13356.9  8.50283  1  1.98008  1.8384  1.81213
 13386.8  8.48363  1.0  1.95518  1.81622  1.80093
 13416.8  8.46453  1  1.93013  1.79382  1.79112
 13446.8  8.44551  1.0  1.90833  1.77438  1.78284
 13476.8  8.42658  1  1.88145  1.75012  1.76798
 13506.8  8.40773  1.0  1.85769  1.72876  1.75471
 13536.8  8.38896  1  1.82927  1.70319  1.73803
 13566.8  8.37028  1.0  1.77025  1.64888  1.69261
 13596.8  8.35169  1  1.77072  1.65008  1.7036
 13626.8  8.33317  1.0  1.75124  1.63263  1.69483
 13656.8  8.31474  1  1.72302  1.60699  1.67667
 13686.8  8.29639  1.0  1.69433  1.58088  1.65742
 13716.8  8.27812  1  1.66488  1.55413  1.63767
 13746.8  8.25993  1.0  1.6345  1.52645  1.61676
 13776.8  8.24182  1  1.60338  1.49794  1.59493
 13806.8  8.22379  1.0  1.5713  1.46867  1.57163
 13836.8  8.20585  1  1.53795  1.4382  1.54636
 13866.8  8.18797  1.0  1.5035  1.40637  1.51907
 13886.8  8.1761  1.0  1.48023  1.38513  1.50089