File: MEX1_29687_processed.xdi
# XDI/1.0
# Mono.d_spacing: 3.13897
# Reference.Element: W
# ROI.start_bin: nan
# ROI.end_bin: nan
# Element.symbol: None
# Element.edge: None
# Processing.version: spec_processing_library v0.3.5
# Column.1: energy
# Column.2: bragg
# Column.3: count_time seconds
# Column.4: i0
# Column.5: i1
# Column.6: i2
# Describe.Column.1: energy - MEX1ES01ZEB01:CALC_ENERGY_EV
# Describe.Column.2: bragg - MEX1ES01ZEB01:BRAGG_WITH_OFFSET
# Describe.Column.3: count_time - MEX1ES01ZEB01:GATE_TIME_SET
# Describe.Column.4: i0 - MEX1ES01DAQ01:ch1:S:MeanValue_RBV
# Describe.Column.5: i1 - MEX1ES01DAQ01:ch2:S:MeanValue_RBV
# Describe.Column.6: i2 - MEX1ES01DAQ01:ch3:S:MeanValue_RBV
# Samples: [417, 417, 417, 417, 417, 417]
# ///
# W foil
#
# xdi from default mda2xdi preset for mex1.
#--------
#  energy   bragg   count_time   i0   i1   i2
 10006.3  11.383  1  2.51753  2.1181  3.66263
 10036.4  11.3485  1.0  2.4987  2.10539  3.66924
 10066.4  11.3143  1  2.4816  2.09416  3.67882
 10096.3  11.2802  1.0  2.47052  2.0878  3.69604
 10126.3  11.2464  1  2.45321  2.07623  3.70062
 10156.3  11.2127  1.0  2.43628  2.06482  3.6879
 10186.3  11.1793  1  2.41932  2.05342  3.50392
 10187.1  11.1784  1.0  2.41889  2.05313  3.48775
 10187.8  11.1776  1  2.41831  2.05275  3.469
 10188.6  11.1768  1.0  2.4178  2.05239  3.4485
 10189.3  11.1759  1  2.41713  2.0519  3.42538
 10190.1  11.1751  1.0  2.41659  2.05143  3.39954
 10190.8  11.1743  1  2.41607  2.05112  3.37059
 10191.6  11.1734  1.0  2.41562  2.05073  3.33781
 10192.3  11.1726  1  2.41499  2.05035  3.29989
 10193.1  11.1718  1.0  2.4144  2.04988  3.25673
 10193.8  11.1709  1  2.41379  2.04946  3.20726
 10194.6  11.1701  1.0  2.41285  2.04877  3.14866
 10195.3  11.1693  1  2.41154  2.0477  3.08003
 10196.1  11.1685  1.0  2.4106  2.04701  3.0002
 10196.8  11.1676  1  2.41076  2.04716  2.90722
 10197.6  11.1668  1.0  2.41072  2.0472  2.79573
 10198.3  11.166  1  2.41032  2.04695  2.66116
 10199.1  11.1651  1.0  2.40978  2.04653  2.49775
 10199.8  11.1643  1  2.40908  2.04607  2.29941
 10200.6  11.1635  1.0  2.40859  2.04571  2.06238
 10201.3  11.1626  1  2.40789  2.04516  1.77959
 10202.1  11.1618  1.0  2.40732  2.0448  1.45645
 10202.8  11.161  1  2.40663  2.04428  1.11242
 10203.6  11.1601  1.0  2.40598  2.04383  0.783707
 10204.3  11.1593  1  2.40544  2.04337  0.517623
 10205.1  11.1585  1.0  2.4048  2.04293  0.339019
 10205.8  11.1576  1  2.40416  2.04253  0.242483
 10206.6  11.1568  1.0  2.40357  2.04209  0.207299
 10207.3  11.156  1  2.40294  2.04155  0.215172
 10208.1  11.1552  1.0  2.40244  2.04128  0.255422
 10208.8  11.1543  1  2.40185  2.04085  0.321186
 10209.6  11.1535  1.0  2.40133  2.0405  0.402996
 10210.3  11.1527  1  2.4008  2.0401  0.490769
 10211.1  11.1518  1.0  2.40024  2.03971  0.576067
 10211.8  11.151  1  2.39967  2.03931  0.653022
 10212.6  11.1502  1.0  2.39927  2.039  0.717947
 10213.3  11.1494  1  2.39872  2.03857  0.768858
 10214.1  11.1485  1.0  2.39829  2.03826  0.806493
 10214.8  11.1477  1  2.39783  2.03788  0.834169
 10215.6  11.1469  1.0  2.39726  2.0375  0.856605
 10216.3  11.146  1  2.39664  2.03701  0.877096
 10217.1  11.1452  1.0  2.39608  2.03674  0.897499
 10217.8  11.1444  1  2.40122  2.04113  0.921735
 10218.6  11.1435  1.0  2.40071  2.04075  0.946452
 10219.3  11.1427  1  2.4001  2.04033  0.973233
 10220.1  11.1419  1.0  2.39958  2.03992  1.00084
 10220.8  11.1411  1  2.39914  2.03958  1.02762
 10221.6  11.1402  1.0  2.39848  2.03914  1.05264
 10222.3  11.1394  1  2.39788  2.03879  1.07546
 10223.1  11.1386  1.0  2.39734  2.03838  1.09493
 10223.8  11.1378  1  2.39679  2.03796  1.11081
 10224.6  11.1369  1.0  2.39635  2.03755  1.12446
 10225.3  11.1361  1  2.39575  2.03718  1.13848
 10226.1  11.1353  1.0  2.39521  2.03675  1.15439
 10226.8  11.1344  1  2.39457  2.03629  1.1723
 10227.6  11.1336  1.0  2.39403  2.03594  1.1898
 10228.3  11.1328  1  2.39344  2.03547  1.20456
 10229.1  11.132  1.0  2.39293  2.03518  1.2158
 10229.8  11.1311  1  2.39229  2.03471  1.22298
 10230.6  11.1303  1.0  2.39167  2.03423  1.22679
 10231.3  11.1295  1  2.39105  2.03374  1.22838
 10232.1  11.1287  1.0  2.39025  2.03312  1.22873
 10232.8  11.1278  1  2.38889  2.0321  1.22938
 10233.6  11.127  1.0  2.38595  2.02967  1.23065
 10234.3  11.1262  1  2.38164  2.02608  1.23338
 10235.1  11.1254  1.0  2.38144  2.02595  1.23943
 10235.8  11.1245  1  2.38549  2.02949  1.24878
 10236.6  11.1237  1.0  2.38758  2.03129  1.25674
 10237.3  11.1229  1  2.38747  2.03123  1.26143
 10238.1  11.1221  1.0  2.38684  2.03083  1.26404
 10238.8  11.1212  1  2.38633  2.03041  1.26494
 10239.6  11.1204  1.0  2.38562  2.02996  1.26459
 10240.3  11.1196  1  2.3851  2.02953  1.26368
 10241.1  11.1188  1.0  2.38462  2.02924  1.26313
 10241.8  11.1179  1  2.38404  2.02878  1.26339
 10242.6  11.1171  1.0  2.38347  2.02835  1.26493
 10243.3  11.1163  1  2.38293  2.028  1.26825
 10244.1  11.1155  1.0  2.38239  2.02754  1.27361
 10244.8  11.1146  1  2.38177  2.02715  1.28057
 10245.6  11.1138  1.0  2.38121  2.02671  1.28891
 10246.3  11.113  1  2.3807  2.02638  1.29839
 10247.1  11.1122  1.0  2.37998  2.02584  1.30833
 10247.8  11.1113  1  2.37945  2.02545  1.31778
 10248.6  11.1105  1.0  2.37884  2.02503  1.32618
 10249.3  11.1097  1  2.37822  2.02457  1.33261
 10250.1  11.1089  1.0  2.37762  2.02405  1.33661
 10250.8  11.108  1  2.37695  2.02367  1.33758
 10251.6  11.1072  1.0  2.38174  2.02768  1.33867
 10252.3  11.1064  1  2.3804  2.02666  1.33343
 10253.1  11.1056  1.0  2.37679  2.02369  1.32492
 10253.8  11.1048  1  2.37242  2.01997  1.31455
 10254.6  11.1039  1.0  2.37309  2.02059  1.30623
 10255.3  11.1031  1  2.37741  2.0244  1.29944
 10256.1  11.1023  1.0  2.37891  2.02572  1.29126
 10276.3  11.0801  1  2.36762  2.018  1.281
 10306.3  11.0475  1.0  2.35127  2.00674  1.29287
 10336.3  11.015  1  2.33445  1.99512  1.24075
 10366.3  10.9827  1.0  2.3179  1.98363  1.30946
 10396.3  10.9507  1  2.30127  1.97201  1.24508
 10426.3  10.9188  1.0  2.2848  1.96041  1.33376
 10456.3  10.8871  1  2.26822  1.94878  1.29715
 10486.3  10.8555  1.0  2.2519  1.93712  1.3002
 10516.3  10.8242  1  2.23554  1.92548  1.33225
 10546.3  10.793  1.0  2.21912  1.91374  1.30585
 10576.3  10.7621  1  2.20336  1.90237  1.34558
 10606.3  10.7313  1.0  2.18462  1.88852  1.34228
 10636.3  10.7007  1  2.17072  1.87874  1.34365
 10666.3  10.6702  1.0  2.15263  1.86522  1.3635
 10696.3  10.6399  1  2.13928  1.85597  1.3805
 10726.3  10.6098  1.0  2.12332  1.84422  1.37712
 10756.3  10.5799  1  2.10762  1.83264  1.38599
 10786.3  10.5501  1.0  2.09168  1.82091  1.39657
 10816.3  10.5205  1  2.07603  1.80918  1.42371
 10846.3  10.4911  1.0  2.06075  1.79794  1.3981
 10876.2  10.4619  1  2.04573  1.78679  1.4187
 10906.2  10.4328  1.0  2.03031  1.77524  1.43591
 10936.2  10.4038  1  2.01501  1.76367  1.45853
 10966.2  10.3751  1.0  1.99859  1.75118  1.44463
 10996.2  10.3464  1  1.98457  1.74077  1.44534
 11026.2  10.318  1.0  1.96956  1.72932  1.46682
 11056.2  10.2897  1  1.9544  1.71777  1.49403
 11086.2  10.2616  1.0  1.93915  1.70608  1.48309
 11116.2  10.2336  1  1.92432  1.69473  1.48173
 11146.2  10.2057  1.0  1.90938  1.68325  1.49843
 11176.2  10.178  1  1.89444  1.67173  1.51224
 11206.2  10.1505  1.0  1.87942  1.66002  1.52954
 11236.2  10.1231  1  1.86431  1.64829  1.52037
 11266.2  10.0959  1.0  1.84924  1.63646  1.52177
 11296.2  10.0688  1  1.83353  1.62409  1.5426
 11326.2  10.0419  1.0  1.818  1.6118  1.54645
 11356.2  10.0151  1  1.5797  1.40184  1.36677
 11386.2  9.98841  1.0  1.8007  1.59943  1.5738
 11416.2  9.9619  1  1.78571  1.58749  1.57593
 11436.2  9.9443  1  1.77532  1.57924  1.57997