File: MEX1_29695_processed.xdi
# XDI/1.0
# Mono.d_spacing: 3.13897
# Reference.Element: Cu
# ROI.start_bin: nan
# ROI.end_bin: nan
# Element.symbol: None
# Element.edge: None
# Processing.version: spec_processing_library v0.3.5
# Column.1: energy
# Column.2: bragg
# Column.3: count_time seconds
# Column.4: i0
# Column.5: i1
# Column.6: i2
# Describe.Column.1: energy - MEX1ES01ZEB01:CALC_ENERGY_EV
# Describe.Column.2: bragg - MEX1ES01ZEB01:BRAGG_WITH_OFFSET
# Describe.Column.3: count_time - MEX1ES01ZEB01:GATE_TIME_SET
# Describe.Column.4: i0 - MEX1ES01DAQ01:ch1:S:MeanValue_RBV
# Describe.Column.5: i1 - MEX1ES01DAQ01:ch2:S:MeanValue_RBV
# Describe.Column.6: i2 - MEX1ES01DAQ01:ch3:S:MeanValue_RBV
# Samples: [417, 417, 417, 417, 417, 417]
# ///
# Cu foil
#
# xdi from default mda2xdi preset for mex1.
#--------
#  energy   bragg   count_time   i0   i1   i2
 8778.49  13.0013  1.0  3.29168  2.55069  2.66804
 8808.51  12.9562  1  3.27035  2.54075  2.6751
 8838.51  12.9115  1.0  3.24973  2.53116  2.68212
 8868.5  12.867  1  3.22914  2.52147  2.68833
 8898.5  12.8229  1.0  3.20824  2.51136  2.69312
 8928.5  12.7791  1  3.19078  2.5039  2.69718
 8958.49  12.7356  1.0  3.16608  2.49041  2.67949
 8959.23  12.7345  1  3.16064  2.48637  2.67436
 8959.98  12.7334  1.0  3.15993  2.48599  2.67303
 8960.73  12.7324  1  3.16522  2.49023  2.67661
 8961.48  12.7313  1.0  3.16543  2.49061  2.67596
 8962.23  12.7302  1  3.16514  2.49046  2.67458
 8962.98  12.7291  1.0  3.16448  2.49011  2.67278
 8963.73  12.728  1  3.16385  2.4897  2.67079
 8964.48  12.727  1.0  3.16323  2.4894  2.66878
 8965.23  12.7259  1  3.1621  2.48857  2.66605
 8965.98  12.7248  1.0  3.15738  2.48512  2.66023
 8966.73  12.7237  1  3.15354  2.48218  2.65465
 8967.48  12.7226  1.0  3.15661  2.48479  2.65472
 8968.23  12.7215  1  3.15905  2.48683  2.65387
 8968.98  12.7205  1.0  3.15864  2.4867  2.65023
 8969.73  12.7194  1  3.15807  2.48639  2.64595
 8970.48  12.7183  1.0  3.15756  2.48606  2.64094
 8971.23  12.7172  1  3.15693  2.48576  2.63515
 8971.98  12.7161  1.0  3.15628  2.48527  2.62834
 8972.73  12.7151  1  3.15553  2.48495  2.62041
 8973.48  12.714  1.0  3.15476  2.48453  2.61051
 8974.23  12.7129  1  3.15427  2.4842  2.59892
 8974.98  12.7118  1.0  3.15351  2.48385  2.58395
 8975.73  12.7107  1  3.15282  2.48333  2.56432
 8976.48  12.7097  1.0  3.15197  2.4829  2.53743
 8977.23  12.7086  1  3.15135  2.48247  2.49878
 8977.98  12.7075  1.0  3.15052  2.48209  2.4384
 8978.73  12.7064  1  3.14967  2.48155  2.33185
 8979.48  12.7053  1.0  3.14883  2.48106  2.12158
 8980.23  12.7043  1  3.14806  2.4806  1.7515
 8980.98  12.7032  1.0  3.14705  2.47993  1.35496
 8981.73  12.7021  1  3.14609  2.47939  1.14343
 8982.48  12.701  1.0  3.14549  2.47909  1.08236
 8983.23  12.6999  1  3.14482  2.47866  1.09303
 8983.98  12.6989  1.0  3.15148  2.48404  1.12858
 8984.73  12.6978  1  3.1507  2.48359  1.13414
 8985.48  12.6967  1.0  3.14988  2.48303  1.0922
 8986.23  12.6956  1  3.1493  2.48276  1.02948
 8986.98  12.6946  1.0  3.14857  2.48239  0.975016
 8987.73  12.6935  1  3.14787  2.48191  0.924792
 8988.48  12.6924  1.0  3.147  2.4814  0.867178
 8989.23  12.6913  1  3.14627  2.48096  0.798874
 8989.98  12.6903  1.0  3.14549  2.48054  0.72224
 8990.73  12.6892  1  3.14484  2.48004  0.641897
 8991.48  12.6881  1.0  3.14399  2.47963  0.564218
 8992.23  12.687  1  3.1431  2.47909  0.497058
 8992.98  12.6859  1.0  3.14251  2.47869  0.443444
 8993.73  12.6849  1  3.14173  2.47828  0.404921
 8994.48  12.6838  1.0  3.14091  2.47773  0.383515
 8995.23  12.6827  1  3.14003  2.47717  0.379939
 8995.98  12.6817  1.0  3.13913  2.47665  0.390372
 8996.73  12.6806  1  3.13835  2.47609  0.408474
 8997.48  12.6795  1.0  3.13726  2.47533  0.428647
 8998.23  12.6784  1  3.13614  2.47476  0.447037
 8998.98  12.6774  1.0  3.13473  2.47378  0.460027
 8999.73  12.6763  1  3.13283  2.47234  0.464608
 9000.48  12.6752  1.0  3.12856  2.46916  0.458459
 9001.23  12.6741  1  3.10846  2.45342  0.439569
 9001.98  12.6731  1.0  3.07031  2.42359  0.410663
 9002.73  12.672  1  3.10507  2.45107  0.389962
 9003.48  12.6709  1.0  3.12854  2.46977  0.373865
 9004.23  12.6698  1  3.12683  2.46852  0.366596
 9004.98  12.6688  1.0  3.11458  2.45904  0.371045
 9005.73  12.6677  1  3.07191  2.42541  0.380712
 9006.48  12.6666  1.0  3.07102  2.42484  0.399292
 9007.23  12.6655  1  3.06337  2.41911  0.416104
 9007.98  12.6645  1.0  3.09347  2.44287  0.4352
 9008.73  12.6634  1  3.1265  2.46918  0.452297
 9009.48  12.6623  1.0  3.12746  2.47001  0.464637
 9010.23  12.6613  1  3.12076  2.46498  0.476429
 9010.98  12.6602  1.0  3.09002  2.44072  0.483383
 9011.73  12.6591  1  3.07589  2.42966  0.489359
 9012.47  12.6581  1.0  3.11386  2.45983  0.49912
 9013.23  12.657  1  3.1274  2.47069  0.501079
 9013.98  12.6559  1.0  3.1272  2.47071  0.498542
 9014.73  12.6548  1  3.12642  2.47019  0.494683
 9015.48  12.6538  1.0  3.13312  2.47557  0.490948
 9016.23  12.6527  1  3.13206  2.47489  0.484672
 9016.98  12.6516  1.0  3.13145  2.47463  0.476822
 9017.72  12.6506  1  3.13069  2.47411  0.467357
 9018.48  12.6495  1.0  3.13001  2.47373  0.456739
 9019.23  12.6484  1  3.12916  2.47319  0.44544
 9019.97  12.6474  1.0  3.12854  2.47288  0.434448
 9020.73  12.6463  1  3.12773  2.47242  0.424179
 9021.48  12.6452  1.0  3.12707  2.47192  0.414608
 9022.23  12.6441  1  3.12624  2.47162  0.405587
 9022.97  12.6431  1.0  3.12548  2.47101  0.396932
 9023.72  12.642  1  3.12493  2.47078  0.3886
 9024.47  12.6409  1.0  3.12419  2.47028  0.381001
 9025.22  12.6399  1  3.1236  2.46999  0.37476
 9025.97  12.6388  1.0  3.12278  2.46949  0.370418
 9026.72  12.6377  1  3.12213  2.46915  0.368724
 9027.47  12.6367  1.0  3.1215  2.46878  0.370033
 9028.22  12.6356  1  3.12085  2.46839  0.374362
 9048.47  12.6069  4.0  3.10681  2.46115  0.448545
 9078.47  12.5645  4  3.08537  2.44979  0.390417
 9108.47  12.5225  4.0  3.0656  2.43961  0.456275
 9138.46  12.4807  4  3.04472  2.42839  0.379581
 9168.46  12.4392  4.0  2.99461  2.39363  0.476571
 9198.46  12.398  4  3.00768  2.4094  0.459117
 9228.45  12.3571  4.0  2.98733  2.39821  0.464015
 9258.45  12.3164  4  2.96986  2.38927  0.495334
 9288.44  12.276  4.0  2.9518  2.37966  0.475232
 9318.44  12.2359  4  2.93524  2.37121  0.501496
 9348.44  12.196  4.0  2.91531  2.35991  0.52458
 9378.43  12.1564  4  2.89573  2.34874  0.51824
 9408.43  12.1171  4.0  2.87633  2.33763  0.523457
 9438.43  12.078  4  2.85614  2.32579  0.541289
 9468.42  12.0391  4.0  2.83749  2.31505  0.55528
 9498.42  12.0005  4  2.8182  2.30373  0.557184
 9528.42  11.9622  4.0  2.79894  2.29229  0.566231
 9558.41  11.9241  4  2.77967  2.28072  0.578339
 9588.41  11.8863  4.0  2.76047  2.26916  0.588581
 9618.4  11.8487  4  2.74133  2.25749  0.594824
 9648.4  11.8113  4.0  2.72165  2.24528  0.601157
 9678.4  11.7742  4  2.70175  2.2328  0.610545
 9708.39  11.7373  4.0  2.67334  2.21317  0.617361
 9738.39  11.7006  4  2.66412  2.20934  0.627731
 9768.39  11.6642  4.0  2.6488  2.20036  0.634822
 9798.38  11.628  4  2.63463  2.19227  0.643353
 9828.38  11.592  4.0  2.60817  2.17383  0.649335
 9858.37  11.5562  4  2.59633  2.16752  0.658819
 9888.37  11.5207  4.0  2.5779  2.15564  0.666059
 9918.36  11.4854  4  2.55957  2.14373  0.672709
 9948.36  11.4503  4.0  2.52226  2.11581  0.674475
 9978.36  11.4154  4  2.46758  2.07318  0.671188
 10008.4  11.3807  4.0  2.50669  2.1093  0.693523
 10038.3  11.3462  4  2.48884  2.09745  0.700089
 10068.3  11.312  4.0  2.47456  2.08856  0.707277
 10098.3  11.278  4  2.45659  2.07648  0.713289
 10128.3  11.2441  4.0  2.43834  2.06404  0.71926
 10158.3  11.2105  4  2.4205  2.05185  0.725043
 10188.3  11.1771  4.0  2.40252  2.03955  0.73082
 10208.3  11.1549  4.0  2.3896  2.0305  0.73439