File: MEX1_29698_processed.xdi
# XDI/1.0
# Mono.d_spacing: 3.13897
# Reference.Element: Fe
# ROI.start_bin: nan
# ROI.end_bin: nan
# Element.symbol: None
# Element.edge: None
# Processing.version: spec_processing_library v0.3.5
# Column.1: energy
# Column.2: bragg
# Column.3: count_time seconds
# Column.4: i0
# Column.5: i1
# Column.6: i2
# Describe.Column.1: energy - MEX1ES01ZEB01:CALC_ENERGY_EV
# Describe.Column.2: bragg - MEX1ES01ZEB01:BRAGG_WITH_OFFSET
# Describe.Column.3: count_time - MEX1ES01ZEB01:GATE_TIME_SET
# Describe.Column.4: i0 - MEX1ES01DAQ01:ch1:S:MeanValue_RBV
# Describe.Column.5: i1 - MEX1ES01DAQ01:ch2:S:MeanValue_RBV
# Describe.Column.6: i2 - MEX1ES01DAQ01:ch3:S:MeanValue_RBV
# Samples: [417, 417, 417, 417, 417, 417]
# ///
# Fe foil
#
# xdi from default mda2xdi preset for mex1.
#--------
#  energy   bragg   count_time   i0   i1   i2
 6911.69  16.6029  1.0  4.78682  2.83134  1.94071
 6941.7  16.529  1  4.7653  2.83792  1.97212
 6971.7  16.4559  1.0  4.7438  2.84417  2.00308
 7001.69  16.3834  1  4.72202  2.84994  2.03377
 7031.69  16.3115  1.0  4.6998  2.85509  2.06341
 7061.69  16.2403  1  4.678  2.86007  2.09109
 7091.69  16.1697  1.0  4.6528  2.86257  2.106
 7092.43  16.168  1  4.65195  2.86248  2.10572
 7093.18  16.1662  1.0  4.65119  2.86248  2.10544
 7093.93  16.1645  1  4.65042  2.86243  2.10501
 7094.68  16.1627  1.0  4.64978  2.86248  2.10457
 7095.43  16.161  1  4.6488  2.86228  2.10384
 7096.18  16.1592  1.0  4.64815  2.86237  2.10327
 7096.93  16.1575  1  4.64726  2.8623  2.1023
 7097.68  16.1557  1.0  4.64648  2.86224  2.10131
 7098.43  16.154  1  4.64569  2.8622  2.10011
 7099.18  16.1522  1.0  4.64477  2.86208  2.09872
 7099.93  16.1505  1  4.6438  2.86197  2.09705
 7100.68  16.1487  1.0  4.6431  2.86199  2.09517
 7101.43  16.1469  1  4.64238  2.86191  2.09286
 7102.18  16.1452  1.0  4.6416  2.86188  2.09018
 7102.93  16.1434  1  4.64092  2.86191  2.08712
 7103.68  16.1417  1.0  4.63991  2.86178  2.08315
 7104.43  16.1399  1  4.63915  2.86174  2.0784
 7105.18  16.1382  1.0  4.63825  2.86158  2.07243
 7105.93  16.1364  1  4.6374  2.86154  2.06484
 7106.68  16.1347  1.0  4.63669  2.86151  2.05466
 7107.43  16.1329  1  4.63569  2.8613  2.04046
 7108.18  16.1312  1.0  4.63487  2.86128  2.01918
 7108.93  16.1294  1  4.634  2.8611  1.98333
 7109.68  16.1277  1.0  4.63288  2.86092  1.90947
 7110.43  16.126  1  4.63163  2.86059  1.73463
 7111.18  16.1242  1.0  4.62997  2.85999  1.4709
 7111.93  16.1225  1  4.6285  2.85955  1.28451
 7112.68  16.1207  1.0  4.62704  2.85916  1.17541
 7113.43  16.119  1  4.62592  2.85883  1.09275
 7114.18  16.1172  1.0  4.62475  2.85856  1.03261
 7114.93  16.1155  1  4.62358  2.85825  1.00035
 7115.68  16.1137  1.0  4.62278  2.85812  0.984259
 7116.43  16.112  1  4.62162  2.85791  0.958945
 7117.18  16.1102  1.0  4.62032  2.85758  0.89865
 7117.93  16.1085  1  4.61894  2.85714  0.809563
 7118.68  16.1068  1.0  4.62799  2.86323  0.720888
 7119.43  16.105  1  4.6264  2.86266  0.635408
 7120.18  16.1033  1.0  4.62496  2.86211  0.556934
 7120.93  16.1015  1  4.62325  2.86158  0.493468
 7121.68  16.0998  1.0  4.62182  2.86109  0.447601
 7122.43  16.098  1  4.62015  2.86049  0.413951
 7123.18  16.0963  1.0  4.61882  2.8601  0.388061
 7123.93  16.0946  1  4.61726  2.85954  0.367162
 7124.68  16.0928  1.0  4.61593  2.85918  0.349548
 7125.43  16.0911  1  4.61443  2.85864  0.333363
 7126.18  16.0893  1.0  4.61286  2.85816  0.317058
 7126.93  16.0876  1  4.61163  2.85786  0.299093
 7127.68  16.0859  1.0  4.61011  2.85726  0.278818
 7128.43  16.0841  1  4.60888  2.85692  0.258069
 7129.18  16.0824  1.0  4.60741  2.85649  0.239903
 7129.93  16.0807  1  4.60632  2.85621  0.227554
 7130.68  16.0789  1.0  4.60545  2.85613  0.224464
 7131.43  16.0772  1  4.60449  2.85602  0.231334
 7132.18  16.0754  1.0  4.60392  2.85601  0.245444
 7132.93  16.0737  1  4.60325  2.85606  0.262138
 7133.68  16.072  1.0  4.60269  2.8562  0.277966
 7134.43  16.0702  1  4.6021  2.8562  0.290749
 7135.18  16.0685  1.0  4.60152  2.85628  0.299321
 7135.93  16.0668  1  4.60086  2.85629  0.303513
 7136.68  16.065  1.0  4.59993  2.85616  0.303779
 7137.43  16.0633  1  4.59923  2.85623  0.300519
 7138.18  16.0616  1.0  4.59849  2.85615  0.294776
 7138.93  16.0598  1  4.59764  2.8561  0.288202
 7139.68  16.0581  1.0  4.5969  2.85597  0.282405
 7140.43  16.0564  1  4.59605  2.8559  0.27859
 7141.18  16.0546  1.0  4.59531  2.85592  0.27729
 7141.93  16.0529  1  4.59427  2.85575  0.278193
 7142.68  16.0512  1.0  4.5935  2.85569  0.280339
 7143.43  16.0494  1  4.59264  2.85556  0.282362
 7144.18  16.0477  1.0  4.59192  2.85559  0.283084
 7144.93  16.046  1  4.59109  2.85546  0.281585
 7145.68  16.0443  1.0  4.59013  2.85529  0.277651
 7146.43  16.0425  1  4.58947  2.85527  0.271582
 7147.18  16.0408  1.0  4.58845  2.85518  0.264359
 7147.93  16.0391  1  4.58763  2.8551  0.25721
 7148.68  16.0373  1.0  4.58681  2.85494  0.251275
 7149.43  16.0356  1  4.58611  2.855  0.24695
 7150.18  16.0339  1.0  4.5851  2.85472  0.243942
 7150.93  16.0322  1  4.58454  2.85485  0.241706
 7151.68  16.0304  1.0  4.5947  2.86167  0.240403
 7152.43  16.0287  1  4.59387  2.86152  0.23894
 7153.18  16.027  1.0  4.59293  2.86133  0.238383
 7153.93  16.0253  1  4.59214  2.86129  0.238751
 7154.67  16.0235  1.0  4.59132  2.86129  0.240007
 7155.43  16.0218  1  4.59041  2.86104  0.241622
 7156.18  16.0201  1.0  4.58974  2.86115  0.243215
 7156.93  16.0184  1  4.58897  2.86109  0.244489
 7157.68  16.0166  1.0  4.5882  2.86103  0.245229
 7158.43  16.0149  1  4.58723  2.86086  0.245536
 7159.18  16.0132  1.0  4.58652  2.8608  0.245714
 7159.92  16.0115  1  4.58576  2.86077  0.245962
 7160.67  16.0098  1.0  4.58495  2.86067  0.246597
 7161.42  16.008  1  4.58395  2.86048  0.24758
 7181.67  15.9617  4.0  4.5668  2.86126  0.309592
 7211.67  15.8935  4  4.54141  2.86215  0.289619
 7241.67  15.826  4.0  4.5125  2.8604  0.339805
 7271.67  15.759  4  4.49243  2.86388  0.290545
 7301.66  15.6926  4.0  4.46677  2.86348  0.32806
 7331.66  15.6267  4  4.44075  2.86249  0.354506
 7361.66  15.5614  4.0  4.41378  2.8605  0.300517
 7391.65  15.4967  4  4.38778  2.85878  0.384343
 7421.65  15.4325  4.0  4.36068  2.85611  0.382708
 7451.65  15.3688  4  4.29417  2.82696  0.362282
 7481.64  15.3057  4.0  4.31887  2.85771  0.403425
 7511.64  15.2431  4  4.29131  2.85361  0.421884
 7541.64  15.181  4.0  4.26402  2.84938  0.429335
 7571.63  15.1194  4  4.23659  2.84473  0.431231
 7601.63  15.0583  4.0  4.17688  2.81802  0.453494
 7631.63  14.9977  4  4.181  2.83396  0.468742
 7661.625  14.9377  4.0  4.15302  2.82792  0.485422
 7691.62  14.8781  4  4.12443  2.82118  0.489746
 7721.62  14.8189  4.0  4.08202  2.80463  0.507079
 7751.62  14.7603  4  4.07097  2.80933  0.520858
 7781.61  14.7021  4.0  4.04345  2.80232  0.536266
 7811.61  14.6444  4  4.01593  2.79513  0.546208
 7841.61  14.5871  4.0  3.96096  2.76844  0.553034
 7871.6  14.5303  4  3.96875  2.7853  0.572176
 7901.6  14.4739  4.0  3.94135  2.77728  0.58638
 7931.6  14.418  4  3.91288  2.76823  0.598933
 7961.59  14.3625  4.0  3.88695  2.76068  0.609465
 7991.59  14.3074  4  3.85967  2.75194  0.620458
 8021.59  14.2528  4.0  3.8322  2.74278  0.632948
 8051.58  14.1986  4  3.80384  2.73269  0.645827
 8081.58  14.1448  4.0  3.78252  2.72738  0.660108
 8111.58  14.0914  4  3.75399  2.71669  0.670061
 8141.57  14.0384  4.0  3.72686  2.70673  0.681546
 8171.57  13.9858  4  3.70008  2.69681  0.693183
 8201.57  13.9336  4.0  3.67355  2.68679  0.70547
 8231.57  13.8818  4  3.65572  2.68295  0.719629
 8261.56  13.8304  4.0  3.6299  2.67297  0.731368
 8291.56  13.7794  4  3.60401  2.66271  0.742915
 8321.55  13.7288  4.0  3.5789  2.65284  0.754539
 8341.55  13.6952  4.0  3.56127  2.64547  0.762223