File: MEX1_29703_processed.xdi
# XDI/1.0
# Mono.d_spacing: 3.13897
# Reference.Element: Sn
# ROI.start_bin: nan
# ROI.end_bin: nan
# Element.symbol: None
# Element.edge: None
# Processing.version: spec_processing_library v0.3.5
# Column.1: energy
# Column.2: bragg
# Column.3: count_time seconds
# Column.4: i0
# Column.5: i1
# Column.6: i2
# Describe.Column.1: energy - MEX1ES01ZEB01:CALC_ENERGY_EV
# Describe.Column.2: bragg - MEX1ES01ZEB01:BRAGG_WITH_OFFSET
# Describe.Column.3: count_time - MEX1ES01ZEB01:GATE_TIME_SET
# Describe.Column.4: i0 - MEX1ES01DAQ01:ch1:S:MeanValue_RBV
# Describe.Column.5: i1 - MEX1ES01DAQ01:ch2:S:MeanValue_RBV
# Describe.Column.6: i2 - MEX1ES01DAQ01:ch3:S:MeanValue_RBV
# Samples: [417, 417, 417, 417, 417, 417]
# ///
# Sn foil
#
# xdi from default mda2xdi preset for mex1.
#--------
#  energy   bragg   count_time   i0   i1   i2
 3728.92  31.98  1.0  2.02881  0.258192  2.13529
 3758.92  31.6949  1  2.10934  0.272751  2.12056
 3788.92  31.4152  1.0  2.18453  0.28875  2.11027
 3818.92  31.1407  1  2.2647  0.307748  2.1205
 3848.92  30.8713  1.0  2.33127  0.326349  2.11843
 3878.92  30.6067  1  2.40842  0.347568  2.11795
 3908.91  30.347  1.0  2.49007  0.370868  2.11716
 3909.66  30.3405  1  2.49219  0.371698  2.12147
 3910.41  30.3341  1.0  2.49392  0.372394  2.12223
 3911.16  30.3277  1  2.49561  0.372859  2.12145
 3911.91  30.3212  1.0  2.49717  0.373363  2.12013
 3912.66  30.3148  1  2.49896  0.373971  2.12005
 3913.41  30.3084  1.0  2.50047  0.374523  2.12027
 3914.16  30.302  1  2.50203  0.374628  2.11104
 3914.91  30.2956  1.0  2.50391  0.375639  2.11926
 3915.66  30.2892  1  2.50547  0.376159  2.11841
 3916.41  30.2828  1.0  2.50706  0.376667  2.11778
 3917.16  30.2763  1  2.50858  0.377209  2.11712
 3917.91  30.2699  1.0  2.51022  0.377704  2.11568
 3918.66  30.2635  1  2.51192  0.378313  2.11499
 3919.41  30.2572  1.0  2.5135  0.378819  2.11445
 3920.16  30.2508  1  2.51508  0.379334  2.11311
 3920.91  30.2444  1.0  2.51665  0.37986  2.1125
 3921.66  30.238  1  2.51829  0.380361  2.1112
 3922.41  30.2316  1.0  2.51937  0.379935  2.09309
 3923.16  30.2252  1  2.5214  0.381381  2.10787
 3923.91  30.2188  1.0  2.52325  0.382257  2.11235
 3924.66  30.2124  1  2.52398  0.381215  2.08492
 3925.41  30.2061  1.0  2.52647  0.383274  2.10893
 3926.16  30.1997  1  2.52805  0.383832  2.10732
 3926.91  30.1933  1.0  2.52961  0.384388  2.10543
 3927.66  30.187  1  2.53117  0.384927  2.10246
 3928.41  30.1806  1.0  2.53269  0.385467  2.09869
 3929.16  30.1742  1  2.53437  0.386021  2.09453
 3929.91  30.1679  1.0  2.5359  0.38658  2.09138
 3930.66  30.1615  1  2.5375  0.387166  2.08889
 3931.41  30.1552  1.0  2.53899  0.387704  2.0858
 3932.16  30.1488  1  2.54663  0.389127  2.08713
 3932.91  30.1425  1.0  2.54823  0.389673  2.08504
 3933.66  30.1362  1  2.54999  0.390257  2.08313
 3934.41  30.1298  1.0  2.55149  0.390816  2.08121
 3935.16  30.1235  1  2.55309  0.391371  2.0779
 3935.91  30.1171  1.0  2.55464  0.391941  2.07526
 3936.66  30.1108  1  2.55616  0.392514  2.07253
 3937.41  30.1045  1.0  2.55795  0.393087  2.07041
 3938.16  30.0982  1  2.55963  0.393652  2.06796
 3938.91  30.0918  1.0  2.56109  0.394216  2.06602
 3939.66  30.0855  1  2.56272  0.394749  2.0631
 3940.41  30.0792  1.0  2.5645  0.395373  2.06285
 3941.16  30.0729  1  2.56608  0.395934  2.06155
 3941.91  30.0666  1.0  2.56781  0.396499  2.06061
 3942.66  30.0603  1  2.56943  0.397027  2.05854
 3943.41  30.054  1.0  2.57099  0.397292  2.05247
 3944.16  30.0476  1  2.57308  0.398564  2.06308
 3944.91  30.0413  1.0  2.57463  0.399042  2.06133
 3945.66  30.035  1  2.5763  0.399536  2.05807
 3946.41  30.0288  1.0  2.57784  0.399977  2.05423
 3947.16  30.0225  1  2.57919  0.400111  2.04599
 3947.91  30.0162  1.0  2.58154  0.401734  2.06202
 3948.66  30.0099  1  2.5835  0.402945  2.07225
 3949.41  30.0036  1.0  2.5849  0.40297  2.06075
 3950.16  29.9973  1  2.58652  0.403402  2.05752
 3950.91  29.991  1.0  2.58806  0.403824  2.05436
 3951.66  29.9848  1  2.58943  0.403817  2.04302
 3952.41  29.9785  1.0  2.59188  0.405653  2.06273
 3953.16  29.9722  1  2.59345  0.405949  2.05744
 3953.91  29.966  1.0  2.59504  0.406469  2.0548
 3954.66  29.9597  1  2.5968  0.40708  2.05319
 3955.41  29.9534  1.0  2.59844  0.407652  2.05198
 3956.16  29.9472  1  2.60024  0.408241  2.05038
 3956.91  29.9409  1.0  2.60194  0.408837  2.04934
 3957.66  29.9347  1  2.60375  0.409436  2.04813
 3958.41  29.9284  1.0  2.60553  0.410072  2.04741
 3959.16  29.9222  1  2.60738  0.410666  2.04648
 3959.91  29.9159  1.0  2.60906  0.411285  2.04517
 3960.66  29.9097  1  2.61078  0.411907  2.04474
 3961.41  29.9034  1.0  2.61258  0.412498  2.04417
 3962.16  29.8972  1  2.61439  0.413128  2.04297
 3962.91  29.891  1.0  2.61611  0.413731  2.04243
 3963.66  29.8847  1  2.61778  0.414339  2.04141
 3964.41  29.8785  1.0  2.62221  0.415349  2.04191
 3965.16  29.8723  1  2.62748  0.416482  2.04244
 3965.91  29.8661  1.0  2.62922  0.417124  2.04182
 3966.66  29.8598  1  2.63084  0.417756  2.04059
 3967.41  29.8536  1.0  2.63244  0.418309  2.03989
 3968.16  29.8474  1  2.63429  0.418952  2.03888
 3968.91  29.8412  1.0  2.63579  0.419535  2.03842
 3969.66  29.835  1  2.63748  0.420178  2.03716
 3970.41  29.8288  1.0  2.63907  0.420772  2.03663
 3971.16  29.8226  1  2.64061  0.421404  2.03573
 3971.91  29.8164  1.0  2.64243  0.422017  2.03412
 3972.66  29.8102  1  2.64403  0.422609  2.03366
 3973.41  29.804  1.0  2.6457  0.423263  2.03243
 3974.16  29.7978  1  2.64732  0.423874  2.03157
 3974.91  29.7916  1.0  2.64831  0.423439  2.01242
 3975.66  29.7854  1  2.65056  0.425081  2.02968
 3976.41  29.7792  1.0  2.65227  0.425701  2.02879
 3977.16  29.773  1  2.65384  0.426342  2.02757
 3977.91  29.7669  1.0  2.65551  0.426969  2.02664
 3978.66  29.7607  1  2.6571  0.427567  2.02579
 3998.91  29.5949  1.0  2.70644  0.445367  1.99818
 4028.91  29.3529  1  2.77364  0.472876  1.95817
 4058.91  29.115  1.0  2.84358  0.501387  1.90571
 4088.9  28.8812  1  2.91345  0.531841  1.84942
 4118.9  28.6513  1.0  2.97755  0.562661  1.77907
 4148.9  28.4252  1  3.04331  0.596054  1.71763
 4178.9  28.2028  1.0  3.10921  0.630711  1.61203
 4208.9  27.984  1  3.16381  0.664977  1.52443
 4238.9  27.7688  1.0  3.24375  0.706834  1.45347
 4268.89  27.557  1  3.2992  0.745107  1.36418
 4298.89  27.3485  1.0  3.36041  0.787229  1.29326
 4328.89  27.1434  1  3.41811  0.830031  1.21109
 4358.89  26.9414  1.0  3.4766  0.875885  1.15014
 4388.89  26.7425  1  3.53195  0.922656  1.0872
 4418.88  26.5467  1.0  3.58368  0.969758  1.01022
 4448.88  26.3539  1  3.63616  1.01951  0.949509
 4478.88  26.1639  1.0  3.68987  1.07188  0.864587
 4508.88  25.9768  1  3.7407  1.12529  0.815373
 4538.88  25.7924  1.0  3.78987  1.18009  0.773791
 4568.88  25.6108  1  3.83422  1.23433  0.715463
 4598.87  25.4318  1.0  3.87902  1.29095  0.67516
 4628.87  25.2553  1  3.92697  1.34968  0.626943
 4658.87  25.0814  1.0  3.976  1.41208  0.62086
 4688.87  24.9099  1  4.01749  1.47227  0.592297
 4718.87  24.7409  1.0  4.0548  1.53236  0.568758
 4748.87  24.5743  1  4.09158  1.59367  0.551553
 4778.86  24.4099  1.0  4.13272  1.65818  0.544497
 4808.86  24.2478  1  4.16536  1.72065  0.545145
 4838.86  24.0879  1.0  4.20122  1.78625  0.565851
 4868.86  23.9302  1  4.23446  1.85206  0.598013
 4898.86  23.7746  1.0  4.2661  1.91839  0.641659
 4928.85  23.621  1  4.29172  1.98314  0.695241
 4958.85  23.4695  1.0  4.31989  2.0502  0.761836
 4988.85  23.3201  1  4.34353  2.11596  0.837955
 5018.85  23.1725  1.0  4.37153  2.18457  0.92171
 5048.85  23.0269  1  4.39333  2.25087  1.01043
 5078.84  22.8831  1.0  4.41272  2.31635  1.10511
 5108.84  22.7412  1  4.43063  2.38167  1.20875
 5138.84  22.6011  1.0  4.44964  2.44805  1.32154
 5158.84  22.5086  1.0  4.46315  2.49299  1.39951