File: MEX1_29704_processed.xdi
# XDI/1.0
# Mono.d_spacing: 3.13897
# Reference.Element: In
# ROI.start_bin: nan
# ROI.end_bin: nan
# Element.symbol: None
# Element.edge: None
# Processing.version: spec_processing_library v0.3.5
# Column.1: energy
# Column.2: bragg
# Column.3: count_time seconds
# Column.4: i0
# Column.5: i1
# Column.6: i2
# Describe.Column.1: energy - MEX1ES01ZEB01:CALC_ENERGY_EV
# Describe.Column.2: bragg - MEX1ES01ZEB01:BRAGG_WITH_OFFSET
# Describe.Column.3: count_time - MEX1ES01ZEB01:GATE_TIME_SET
# Describe.Column.4: i0 - MEX1ES01DAQ01:ch1:S:MeanValue_RBV
# Describe.Column.5: i1 - MEX1ES01DAQ01:ch2:S:MeanValue_RBV
# Describe.Column.6: i2 - MEX1ES01DAQ01:ch3:S:MeanValue_RBV
# Samples: [417, 417, 417, 417, 417, 417]
# ///
# In foil
#
# xdi from default mda2xdi preset for mex1.
#--------
#  energy   bragg   count_time   i0   i1   i2
 3529.93  34.0198  1  1.6423  0.579937  3.03836
 3559.93  33.6945  1.0  1.73011  0.584941  2.92392
 3589.93  33.3758  1  1.78583  0.592715  2.83158
 3619.93  33.0636  1.0  1.76914  0.59475  2.74362
 3649.93  32.7575  1  1.84252  0.609572  2.65607
 3679.93  32.4575  1.0  1.91126  0.628259  2.58207
 3709.92  32.1633  1  1.99361  0.657519  2.54985
 3710.67  32.156  1.0  1.99497  0.658325  2.54944
 3711.42  32.1488  1  1.99624  0.658827  2.54849
 3712.17  32.1415  1.0  2.00208  0.660817  2.55134
 3712.92  32.1342  1  2.00322  0.661391  2.5509
 3713.67  32.127  1.0  2.00466  0.662336  2.5509
 3714.42  32.1197  1  2.00608  0.663302  2.54865
 3715.17  32.1124  1.0  2.00695  0.66253  2.5414
 3715.92  32.1052  1  2.00857  0.664321  2.54547
 3716.67  32.0979  1.0  2.0095  0.663831  2.54034
 3717.42  32.0907  1  2.01086  0.664865  2.54166
 3718.17  32.0834  1.0  2.01214  0.665304  2.53972
 3718.92  32.0762  1  2.01357  0.666123  2.5395
 3719.67  32.0689  1.0  2.015  0.666823  2.53937
 3720.42  32.0617  1  2.01644  0.667519  2.53764
 3721.17  32.0545  1.0  2.01788  0.668168  2.53637
 3721.92  32.0472  1  2.01947  0.668917  2.53599
 3722.67  32.04  1.0  2.02089  0.669658  2.53501
 3723.42  32.0328  1  2.02249  0.670313  2.53377
 3724.17  32.0256  1.0  2.02404  0.670904  2.5328
 3724.92  32.0184  1  2.02546  0.671676  2.53174
 3725.67  32.0112  1.0  2.02723  0.672855  2.53368
 3726.42  32.0039  1  2.02846  0.672437  2.52362
 3727.17  31.9967  1.0  2.03013  0.673403  2.52555
 3727.92  31.9895  1  2.03171  0.674109  2.52473
 3728.67  31.9823  1.0  2.03341  0.674881  2.52288
 3729.42  31.9751  1  2.03505  0.67554  2.52174
 3730.17  31.9679  1.0  2.03687  0.676277  2.52022
 3730.92  31.9608  1  2.03869  0.677071  2.51861
 3731.67  31.9536  1.0  2.04054  0.677693  2.51624
 3732.42  31.9464  1  2.04232  0.678206  2.51222
 3733.17  31.9392  1.0  2.04449  0.679476  2.5141
 3733.92  31.932  1  2.04633  0.680048  2.51176
 3734.67  31.9249  1.0  2.04775  0.677883  2.48912
 3735.42  31.9177  1  2.05059  0.682261  2.5131
 3736.17  31.9105  1.0  2.05262  0.682783  2.50934
 3736.92  31.9034  1  2.05453  0.682802  2.50266
 3737.67  31.8962  1.0  2.05679  0.684523  2.50722
 3738.42  31.8891  1  2.059  0.685297  2.50579
 3739.17  31.8819  1.0  2.06116  0.686131  2.50373
 3739.92  31.8748  1  2.06316  0.686946  2.50287
 3740.67  31.8676  1.0  2.06533  0.687719  2.5013
 3741.42  31.8605  1  2.0675  0.68855  2.50006
 3742.17  31.8534  1.0  2.06951  0.689357  2.49845
 3742.92  31.8462  1  2.07162  0.690175  2.49704
 3743.67  31.8391  1.0  2.07375  0.691082  2.49609
 3744.42  31.832  1  2.07576  0.691852  2.49452
 3745.17  31.8249  1.0  2.07775  0.692756  2.49343
 3745.92  31.8177  1  2.07977  0.693521  2.492
 3746.67  31.8106  1.0  2.08626  0.695622  2.49408
 3747.42  31.8035  1  2.08807  0.696435  2.49342
 3748.17  31.7964  1.0  2.0899  0.697294  2.49262
 3748.92  31.7893  1  2.09172  0.697996  2.491
 3749.67  31.7822  1.0  2.09344  0.698793  2.49002
 3750.42  31.7751  1  2.0951  0.699594  2.48837
 3751.17  31.768  1.0  2.09676  0.700353  2.48774
 3751.92  31.7609  1  2.09838  0.701024  2.48508
 3752.67  31.7538  1.0  2.09951  0.699378  2.46773
 3753.42  31.7467  1  2.1018  0.702879  2.48475
 3754.17  31.7396  1.0  2.10328  0.703462  2.48329
 3754.92  31.7326  1  2.1049  0.704192  2.48138
 3755.67  31.7255  1.0  2.10644  0.704946  2.4798
 3756.42  31.7184  1  2.10794  0.705705  2.47777
 3757.17  31.7114  1.0  2.1091  0.704914  2.46566
 3757.92  31.7043  1  2.11068  0.705977  2.46661
 3758.67  31.6972  1.0  2.11246  0.70827  2.47667
 3759.42  31.6902  1  2.11386  0.708931  2.47471
 3760.17  31.6831  1.0  2.11521  0.709649  2.47301
 3760.92  31.6761  1  2.11658  0.710301  2.47157
 3761.67  31.669  1.0  2.11788  0.710896  2.4695
 3762.42  31.662  1  2.11904  0.710618  2.46012
 3763.17  31.6549  1.0  2.12063  0.712764  2.46856
 3763.92  31.6479  1  2.12205  0.713525  2.46672
 3764.67  31.6409  1.0  2.12341  0.714186  2.46587
 3765.42  31.6338  1  2.12478  0.714958  2.46426
 3766.17  31.6268  1.0  2.12624  0.715734  2.46322
 3766.92  31.6198  1  2.12762  0.716526  2.46203
 3767.67  31.6128  1.0  2.12928  0.717296  2.46092
 3768.42  31.6057  1  2.13066  0.718058  2.45914
 3769.17  31.5987  1.0  2.13223  0.718769  2.45788
 3769.92  31.5917  1  2.1337  0.719588  2.45625
 3770.67  31.5847  1.0  2.1352  0.720348  2.45482
 3771.42  31.5777  1  2.1369  0.721189  2.45324
 3772.17  31.5707  1.0  2.13852  0.721977  2.45181
 3772.92  31.5637  1  2.14019  0.722759  2.45015
 3773.67  31.5567  1.0  2.14191  0.723533  2.44932
 3774.42  31.5497  1  2.14361  0.724339  2.44725
 3775.17  31.5427  1.0  2.14534  0.72526  2.44559
 3775.92  31.5357  1  2.14716  0.726017  2.44426
 3776.67  31.5288  1.0  2.14892  0.726726  2.44095
 3777.42  31.5218  1  2.15085  0.727922  2.44195
 3778.17  31.5148  1.0  2.15209  0.725783  2.41948
 3778.92  31.5078  1  2.15715  0.73017  2.43992
 3779.67  31.5009  1.0  2.16122  0.732203  2.44363
 3799.92  31.3139  1  2.21785  0.757694  2.40268
 3829.92  31.0413  1.0  2.28752  0.796109  2.34393
 3859.92  30.7737  1  2.35441  0.838614  2.29208
 3889.91  30.5109  1.0  2.43236  0.886307  2.22909
 3919.91  30.2529  1  2.50567  0.936251  2.1578
 3949.91  29.9994  1.0  2.57274  0.98829  2.0756
 3979.91  29.7504  1  2.64181  1.04313  1.97801
 4009.91  29.5057  1.0  2.7144  1.10245  1.87238
 4039.91  29.2652  1  2.77394  1.16486  1.78666
 4069.91  29.0288  1.0  2.84238  1.23211  1.68129
 4099.9  28.7964  1  2.90294  1.3005  1.56939
 4129.9  28.5679  1.0  2.96291  1.374  1.46338
 4159.9  28.3432  1  3.02524  1.4539  1.36427
 4189.9  28.1222  1.0  3.08758  1.54003  1.27849
 4219.9  27.9047  1  2.6935  1.41212  1.17174
 4249.89  27.6907  1.0  3.212  1.72736  1.09718
 4279.89  27.4802  1  3.26683  1.82463  1.01547
 4309.89  27.2729  1.0  3.32377  1.92851  0.943008
 4339.89  27.069  1  3.37975  2.03607  0.868706
 4369.89  26.8681  1.0  3.43274  2.14955  0.82507
 4399.89  26.6704  1  3.48271  2.26392  0.766954
 4429.88  26.4757  1.0  3.53226  2.38345  0.722682
 4459.88  26.2839  1  3.58456  2.5109  0.698906
 4489.88  26.095  1.0  3.63516  2.64142  0.675844
 4519.88  25.9089  1  3.68073  2.77257  0.658831
 4549.88  25.7255  1.0  3.72735  2.90939  0.654212
 4579.88  25.5448  1  3.77083  3.04742  0.651471
 4609.87  25.3668  1.0  3.81049  3.1863  0.655066
 4639.87  25.1913  1  3.8373  3.31794  0.665615
 4669.87  25.0182  1.0  3.89104  3.47727  0.695651
 4699.87  24.8477  1  3.93195  3.6292  0.732169
 4729.87  24.6795  1.0  3.96756  3.77925  0.77143
 4759.86  24.5137  1  4.00203  3.93133  0.818182
 4789.86  24.3502  1.0  4.04567  4.096  0.879792
 4819.86  24.1889  1  4.07902  4.2541  0.951688
 4849.86  24.0298  1.0  4.11075  4.41323  1.0366
 4879.86  23.8729  1  4.1412  4.57407  1.13249
 4909.86  23.718  1.0  4.16887  4.73468  1.23946
 4939.85  23.5653  1  4.19457  4.89496  1.35731
 4959.85  23.4645  1  4.21036  5.00127  1.44149