File: MEX1_29706_processed.xdi
# XDI/1.0
# Mono.d_spacing: 3.13897
# Reference.Element: Ca
# ROI.start_bin: nan
# ROI.end_bin: nan
# Element.symbol: None
# Element.edge: None
# Processing.version: spec_processing_library v0.3.5
# Column.1: energy
# Column.2: bragg
# Column.3: count_time seconds
# Column.4: i0
# Column.5: i1
# Column.6: i2
# Describe.Column.1: energy - MEX1ES01ZEB01:CALC_ENERGY_EV
# Describe.Column.2: bragg - MEX1ES01ZEB01:BRAGG_WITH_OFFSET
# Describe.Column.3: count_time - MEX1ES01ZEB01:GATE_TIME_SET
# Describe.Column.4: i0 - MEX1ES01DAQ01:ch1:S:MeanValue_RBV
# Describe.Column.5: i1 - MEX1ES01DAQ01:ch2:S:MeanValue_RBV
# Describe.Column.6: i2 - MEX1ES01DAQ01:ch3:S:MeanValue_RBV
# Samples: [417, 417, 417, 417, 417, 417]
# ///
# CaCO3
#
# xdi from default mda2xdi preset for mex1.
#--------
#  energy   bragg   count_time   i0   i1   i2
 3838.42  30.965  1  2.29781  0.309542  3.87198
 3868.42  30.6988  1.0  2.37142  0.329744  3.85365
 3898.41  30.4373  1  2.45636  0.355061  3.92027
 3928.41  30.1806  1.0  2.53144  0.380573  3.961
 3958.41  29.9284  1  2.6056  0.406853  3.9724
 3988.41  29.6806  1.0  2.67948  0.434326  3.95919
 4018.41  29.4371  1  2.74226  0.46171  3.92535
 4019.16  29.4311  1.0  2.74604  0.462749  3.92672
 4019.91  29.4251  1  2.74914  0.463592  3.92525
 4020.66  29.4191  1.0  2.75174  0.464409  3.92346
 4021.41  29.413  1  2.75409  0.465173  3.92213
 4022.16  29.407  1.0  2.75637  0.466013  3.92077
 4022.91  29.401  1  2.75844  0.466734  3.91905
 4023.66  29.395  1.0  2.76041  0.467482  3.91709
 4024.41  29.389  1  2.76244  0.468195  3.91549
 4025.16  29.3829  1.0  2.7643  0.46894  3.91361
 4025.91  29.3769  1  2.76607  0.469617  3.91088
 4026.66  29.3709  1.0  2.76794  0.470388  3.91012
 4027.41  29.3649  1  2.77049  0.472114  3.92603
 4028.16  29.3589  1.0  2.77304  0.473918  3.94007
 4028.91  29.3529  1  2.77376  0.473153  3.91374
 4029.66  29.3469  1.0  2.77551  0.473673  3.90999
 4030.41  29.3409  1  2.78351  0.475345  3.91379
 4031.16  29.3349  1.0  2.78515  0.476043  3.91129
 4031.91  29.3289  1  2.78693  0.476756  3.90918
 4032.66  29.323  1.0  2.78864  0.477442  3.90652
 4033.41  29.317  1  2.79049  0.478167  3.90511
 4034.16  29.311  1.0  2.79226  0.478901  3.90265
 4034.91  29.305  1  2.79378  0.479542  3.89828
 4035.66  29.299  1.0  2.79554  0.480171  3.89526
 4036.41  29.2931  1  2.79683  0.480081  3.86252
 4037.16  29.2871  1.0  2.79906  0.481698  3.89268
 4037.91  29.2811  1  2.79819  0.478138  3.7422
 4038.66  29.2752  1.0  2.80223  0.483485  3.90109
 4039.41  29.2692  1  2.80201  0.480803  3.77949
 4040.16  29.2632  1.0  2.80555  0.484936  3.89739
 4040.91  29.2573  1  2.80689  0.485606  3.89271
 4041.66  29.2513  1.0  2.80753  0.486151  3.88706
 4042.41  29.2454  1  2.80858  0.486765  3.88234
 4043.16  29.2394  1.0  2.81008  0.487502  3.87827
 4043.91  29.2335  1  2.81165  0.48821  3.87435
 4044.66  29.2275  1.0  2.81324  0.488899  3.87307
 4045.41  29.2216  1  2.81463  0.489652  3.87081
 4046.16  29.2156  1.0  2.81603  0.490297  3.86806
 4046.91  29.2097  1  2.81721  0.490975  3.86534
 4047.66  29.2038  1.0  2.81836  0.491687  3.86409
 4048.41  29.1978  1  2.81927  0.491587  3.83538
 4049.16  29.1919  1.0  2.82116  0.493062  3.8611
 4049.91  29.186  1  2.82251  0.493812  3.86015
 4050.66  29.1801  1.0  2.82398  0.49453  3.85971
 4051.41  29.1741  1  2.82598  0.495307  3.85901
 4052.16  29.1682  1.0  2.82788  0.496123  3.85729
 4052.91  29.1623  1  2.82991  0.496911  3.8576
 4053.66  29.1564  1.0  2.83235  0.497814  3.85579
 4054.41  29.1505  1  2.83454  0.498674  3.85291
 4055.16  29.1446  1.0  2.83642  0.499152  3.84022
 4055.91  29.1386  1  2.83846  0.500211  3.84923
 4056.66  29.1327  1.0  2.8398  0.500328  3.82275
 4057.41  29.1268  1  2.84217  0.501806  3.84401
 4058.16  29.1209  1.0  2.84393  0.502649  3.84424
 4058.91  29.115  1  2.84593  0.503427  3.84253
 4059.66  29.1091  1.0  2.84789  0.504241  3.84173
 4060.41  29.1033  1  2.84959  0.50504  3.83976
 4061.16  29.0974  1.0  2.85778  0.506844  3.84433
 4061.91  29.0915  1  2.85962  0.507658  3.84341
 4062.66  29.0856  1.0  2.86159  0.508455  3.84313
 4063.41  29.0797  1  2.86324  0.508968  3.82992
 4064.16  29.0738  1.0  2.8653  0.51005  3.83842
 4064.91  29.068  1  2.86729  0.510885  3.83835
 4065.66  29.0621  1.0  2.86925  0.511693  3.83861
 4066.41  29.0562  1  2.871  0.512503  3.83627
 4067.15  29.0503  1.0  2.87271  0.513299  3.83514
 4067.91  29.0445  1  2.87448  0.514118  3.83393
 4068.66  29.0386  1.0  2.87625  0.514885  3.83231
 4069.41  29.0327  1  2.87793  0.51564  3.83022
 4070.15  29.0269  1.0  2.87953  0.5164  3.82843
 4070.91  29.021  1  2.88149  0.517214  3.82671
 4071.66  29.0152  1.0  2.88318  0.518026  3.82333
 4072.41  29.0093  1  2.88486  0.518807  3.82232
 4073.15  29.0035  1.0  2.88654  0.519616  3.8199
 4073.91  28.9976  1  2.88819  0.520344  3.81805
 4074.66  28.9918  1.0  2.88977  0.521115  3.81753
 4075.4  28.9859  1  2.89135  0.521908  3.81284
 4076.15  28.9801  1.0  2.8928  0.522655  3.81078
 4076.91  28.9743  1  2.89443  0.52346  3.80833
 4077.66  28.9684  1.0  2.89584  0.524213  3.80658
 4078.4  28.9626  1  2.89727  0.524932  3.80489
 4079.15  28.9568  1.0  2.89874  0.52567  3.80486
 4079.91  28.9509  1  2.90035  0.526494  3.80271
 4080.65  28.9451  1.0  2.90192  0.527224  3.80082
 4081.4  28.9393  1  2.9034  0.528037  3.79743
 4082.15  28.9335  1.0  2.90489  0.528778  3.79487
 4082.9  28.9277  1  2.90638  0.529532  3.79358
 4083.65  28.9218  1.0  2.90793  0.530298  3.79113
 4084.4  28.916  1  2.90932  0.531079  3.78937
 4085.15  28.9102  1.0  2.91064  0.531807  3.78551
 4085.9  28.9044  1  2.91203  0.532557  3.78429
 4086.65  28.8986  1.0  2.91367  0.533356  3.78181
 4087.4  28.8928  1  2.91502  0.5341  3.78077
 4088.15  28.887  1.0  2.91642  0.534867  3.77865
 4108.4  28.7313  1  2.96098  0.556457  3.70698
 4138.4  28.5039  1.0  3.02837  0.590838  3.62748
 4168.4  28.2802  1  3.09684  0.62671  3.51572
 4198.4  28.0602  1.0  3.16898  0.664787  3.38468
 4228.4  27.8437  1  3.2511  0.706757  3.24591
 4258.39  27.6307  1.0  3.3042  0.745505  3.12189
 4288.39  27.4211  1  3.36574  0.787097  2.96791
 4318.39  27.2148  1.0  3.42694  0.830688  2.81561
 4348.39  27.0117  1  3.48543  0.875289  2.64963
 4378.39  26.8118  1.0  3.54387  0.922563  2.51607
 4408.39  26.6149  1  3.59954  0.970589  2.36457
 4438.38  26.421  1.0  3.65238  1.01961  2.20877
 4468.38  26.2301  1  3.7077  1.07195  2.08841
 4498.38  26.042  1.0  3.76141  1.12549  1.96737
 4528.38  25.8566  1  3.81135  1.17982  1.85163
 4558.38  25.674  1.0  3.85962  1.23522  1.72919
 4588.38  25.4941  1  3.90597  1.29156  1.60863
 4618.37  25.3168  1.0  3.95183  1.34966  1.5058
 4648.37  25.142  1  3.99266  1.40756  1.40879
 4678.37  24.9697  1.0  4.04004  1.46966  1.33678
 4708.37  24.7998  1  4.07868  1.52936  1.23023
 4738.37  24.6323  1.0  4.1181  1.59082  1.13916
 4768.37  24.4671  1  4.1566  1.65355  1.06704
 4798.36  24.3043  1.0  4.19207  1.71628  1.00264
 4828.36  24.1436  1  4.22761  1.78103  0.980949
 4858.36  23.9851  1.0  4.26309  1.84739  0.996297
 4888.36  23.8288  1  4.29685  1.91436  1.03645
 4918.36  23.6745  1.0  4.32573  1.98045  1.10103
 4948.35  23.5223  1  4.35416  2.04769  1.1935
 4978.35  23.3722  1.0  4.38119  2.11521  1.31143
 5008.35  23.2239  1  4.40664  2.18284  1.44577
 5038.35  23.0776  1.0  4.43221  2.25127  1.59117
 5068.34  22.9332  1  4.45269  2.31766  1.74608
 5098.34  22.7907  1.0  4.47512  2.38583  1.91775
 5128.34  22.6499  1  4.49739  2.45433  2.10796
 5158.34  22.5109  1.0  4.51835  2.52281  2.31469
 5188.34  22.3737  1  4.53771  2.59083  2.53683
 5218.33  22.2382  1.0  4.55373  2.65734  2.77266
 5248.33  22.1044  1  4.56735  2.72266  3.02266
 5268.33  22.0161  1  4.57925  2.76814  3.20153