File: MEX1_29694_processed.xdi
# XDI/1.0
# Mono.d_spacing: 3.13897
# Reference.Element: Zn
# ROI.start_bin: nan
# ROI.end_bin: nan
# Element.symbol: None
# Element.edge: None
# Processing.version: spec_processing_library v0.3.5
# Column.1: energy
# Column.2: bragg
# Column.3: count_time seconds
# Column.4: i0
# Column.5: i1
# Column.6: i2
# Describe.Column.1: energy - MEX1ES01ZEB01:CALC_ENERGY_EV
# Describe.Column.2: bragg - MEX1ES01ZEB01:BRAGG_WITH_OFFSET
# Describe.Column.3: count_time - MEX1ES01ZEB01:GATE_TIME_SET
# Describe.Column.4: i0 - MEX1ES01DAQ01:ch1:S:MeanValue_RBV
# Describe.Column.5: i1 - MEX1ES01DAQ01:ch2:S:MeanValue_RBV
# Describe.Column.6: i2 - MEX1ES01DAQ01:ch3:S:MeanValue_RBV
# Samples: [417, 417, 417, 417, 417, 417]
# ///
# Zn foil
#
# xdi from default mda2xdi preset for mex1.
#--------
#  energy   bragg   count_time   i0   i1   i2
 9458.41  12.0521  1  2.84401  2.319  2.65397
 9488.43  12.0134  1.0  2.82592  2.30864  2.65571
 9518.42  11.9749  1  2.80734  2.29774  2.65579
 9548.42  11.9368  1.0  2.78899  2.28692  2.65665
 9578.41  11.8988  1  2.7704  2.27582  2.65547
 9608.41  11.8612  1.0  2.75179  2.26475  2.64998
 9638.41  11.8237  1  2.73287  2.25317  2.62599
 9639.15  11.8228  1.0  2.72998  2.25091  2.6222
 9639.9  11.8219  1  2.72639  2.24802  2.61761
 9640.65  11.8209  1.0  2.72621  2.2479  2.61595
 9641.4  11.82  1  2.73525  2.2554  2.6233
 9642.15  11.8191  1.0  2.73154  2.25251  2.61819
 9642.9  11.8181  1  2.7297  2.25116  2.61452
 9643.65  11.8172  1.0  2.73239  2.25346  2.6152
 9644.4  11.8163  1  2.73384  2.25479  2.6146
 9645.15  11.8153  1.0  2.7337  2.25481  2.61178
 9645.9  11.8144  1  2.73334  2.2546  2.60856
 9646.65  11.8135  1.0  2.73274  2.25414  2.60493
 9647.4  11.8125  1  2.73223  2.2538  2.60076
 9648.15  11.8116  1.0  2.73161  2.25342  2.59619
 9648.9  11.8107  1  2.73024  2.25242  2.59046
 9649.65  11.8097  1.0  2.72661  2.24954  2.58168
 9650.4  11.8088  1  2.724  2.2475  2.57335
 9651.15  11.8079  1.0  2.72524  2.2486  2.56756
 9651.9  11.8069  1  2.72793  2.25091  2.56183
 9652.65  11.806  1.0  2.72775  2.25076  2.55169
 9653.4  11.8051  1  2.72723  2.25051  2.53935
 9654.15  11.8042  1.0  2.7266  2.25011  2.52428
 9654.9  11.8032  1  2.72599  2.24971  2.50562
 9655.65  11.8023  1.0  2.72553  2.24942  2.48203
 9656.4  11.8014  1  2.72473  2.24886  2.45048
 9657.15  11.8004  1.0  2.72422  2.2485  2.40743
 9657.9  11.7995  1  2.72384  2.24828  2.34398
 9658.65  11.7986  1.0  2.72317  2.24779  2.24232
 9659.4  11.7977  1  2.72252  2.24744  2.06275
 9660.15  11.7967  1.0  2.72164  2.24683  1.75169
 9660.9  11.7958  1  2.72096  2.24641  1.35293
 9661.65  11.7949  1.0  2.72034  2.24596  1.02746
 9662.4  11.7939  1  2.71937  2.24531  0.828042
 9663.15  11.793  1.0  2.71892  2.245  0.70548
 9663.9  11.7921  1  2.71823  2.24448  0.629905
 9664.65  11.7912  1.0  2.71742  2.24398  0.585417
 9665.4  11.7902  1  2.71671  2.24346  0.554516
 9666.14  11.7893  1.0  2.71614  2.24305  0.51999
 9666.89  11.7884  1  2.71542  2.24265  0.479939
 9667.64  11.7874  1.0  2.7149  2.24224  0.441827
 9668.39  11.7865  1  2.71416  2.24175  0.410154
 9669.14  11.7856  1.0  2.71367  2.2414  0.384746
 9669.89  11.7847  1  2.71291  2.24089  0.365778
 9670.64  11.7837  1.0  2.71239  2.24054  0.356419
 9671.39  11.7828  1  2.71174  2.24017  0.361861
 9672.14  11.7819  1.0  2.71108  2.23975  0.385847
 9672.89  11.781  1  2.71051  2.23936  0.422897
 9673.64  11.78  1.0  2.70999  2.23903  0.461273
 9674.39  11.7791  1  2.70948  2.23869  0.491181
 9675.14  11.7782  1.0  2.7153  2.24362  0.511029
 9675.89  11.7772  1  2.71477  2.24328  0.52182
 9676.64  11.7763  1.0  2.71404  2.24277  0.526925
 9677.39  11.7754  1  2.71357  2.24245  0.527791
 9678.14  11.7745  1.0  2.71297  2.24208  0.526945
 9678.89  11.7735  1  2.7124  2.24166  0.527984
 9679.64  11.7726  1.0  2.7118  2.24129  0.533159
 9680.39  11.7717  1  2.7111  2.24079  0.542932
 9681.14  11.7708  1.0  2.71052  2.24039  0.556098
 9681.89  11.7698  1  2.71  2.24012  0.570332
 9682.64  11.7689  1.0  2.70936  2.23968  0.582854
 9683.39  11.768  1  2.70888  2.23935  0.591472
 9684.14  11.7671  1.0  2.70816  2.23889  0.596385
 9684.89  11.7661  1  2.70762  2.23853  0.598587
 9685.64  11.7652  1.0  2.70704  2.23813  0.598742
 9686.39  11.7643  1  2.70638  2.23766  0.596825
 9687.14  11.7634  1.0  2.70538  2.23691  0.592564
 9687.89  11.7625  1  2.70417  2.2361  0.586417
 9688.64  11.7615  1.0  2.70362  2.2357  0.578898
 9689.39  11.7606  1  2.70359  2.23569  0.570315
 9690.14  11.7597  1.0  2.70323  2.23553  0.560925
 9690.89  11.7588  1  2.70272  2.23517  0.550986
 9691.64  11.7578  1.0  2.70202  2.23473  0.540755
 9692.39  11.7569  1  2.7015  2.23449  0.530517
 9693.14  11.756  1.0  2.70088  2.23403  0.520473
 9693.89  11.7551  1  2.70035  2.23366  0.511192
 9694.64  11.7541  1.0  2.69966  2.23327  0.50297
 9695.39  11.7532  1  2.69918  2.23282  0.496143
 9696.14  11.7523  1.0  2.69844  2.23243  0.490683
 9696.89  11.7514  1  2.69782  2.23193  0.486578
 9697.64  11.7505  1.0  2.69733  2.23161  0.483754
 9698.39  11.7495  1  2.69659  2.23119  0.482052
 9699.14  11.7486  1.0  2.69617  2.2309  0.481364
 9699.89  11.7477  1  2.6954  2.23034  0.481573
 9700.64  11.7468  1.0  2.69482  2.22997  0.482809
 9701.39  11.7459  1  2.69417  2.22953  0.485482
 9702.14  11.7449  1.0  2.69344  2.22899  0.489588
 9702.89  11.744  1  2.69291  2.22861  0.494958
 9703.64  11.7431  1.0  2.69213  2.22813  0.500777
 9704.39  11.7422  1  2.69154  2.22764  0.506393
 9705.14  11.7413  1.0  2.6904  2.22688  0.511198
 9705.89  11.7403  1  2.68901  2.22579  0.515121
 9706.64  11.7394  1.0  2.68775  2.2249  0.51837
 9707.39  11.7385  1  2.6868  2.22418  0.521093
 9708.14  11.7376  1.0  2.68318  2.22131  0.522666
 9728.39  11.7128  4.0  2.6826  2.22342  0.510004
 9758.39  11.6763  4  2.66442  2.21217  0.538658
 9788.38  11.64  4.0  2.60337  2.1651  0.488934
 9818.38  11.6039  4  2.62796  2.18916  0.544699
 9848.37  11.5681  4.0  2.60891  2.17689  0.522384
 9878.37  11.5325  4  2.59072  2.16519  0.535519
 9908.37  11.4971  4.0  2.57246  2.1534  0.548674
 9938.36  11.4619  4  2.55388  2.14124  0.5476
 9968.36  11.427  4.0  2.53648  2.12998  0.566437
 9998.35  11.3922  4  2.51511  2.11531  0.574694
 10028.4  11.3577  4.0  2.50078  2.10642  0.57807
 10058.3  11.3234  4  2.48313  2.09478  0.590445
 10088.3  11.2893  4.0  2.46521  2.0827  0.60056
 10118.3  11.2554  4  2.45319  2.07559  0.608327
 10148.3  11.2217  4.0  2.43528  2.06346  0.61466
 10178.3  11.1882  4  2.41688  2.05083  0.623917
 10208.3  11.1549  4.0  2.39861  2.03819  0.631574
 10238.3  11.1218  4  2.38142  2.02643  0.638155
 10268.3  11.0889  4.0  2.36391  2.01428  0.644835
 10298.3  11.0562  4  2.34639  2.00213  0.652159
 10328.3  11.0237  4.0  2.3289  1.98987  0.659157
 10358.3  10.9913  4  2.31157  1.97773  0.66528
 10388.3  10.9592  4.0  2.29431  1.96551  0.671169
 10418.3  10.9273  4  2.27705  1.95329  0.677215
 10448.3  10.8955  4.0  2.25987  1.94107  0.683314
 10478.3  10.8639  4  2.24283  1.92886  0.689067
 10508.3  10.8326  4.0  2.22571  1.91658  0.694456
 10538.3  10.8013  4  2.21161  1.90678  0.700766
 10568.3  10.7703  4.0  2.19254  1.89267  0.70542
 10598.3  10.7395  4  2.18102  1.88498  0.712354
 10628.3  10.7088  4.0  2.16386  1.87243  0.716887
 10658.3  10.6783  4  2.14208  1.85578  0.720207
 10688.3  10.648  4.0  2.1311  1.8484  0.726577
 10718.3  10.6179  4  2.11457  1.83623  0.731331
 10748.3  10.5879  4.0  2.09824  1.82414  0.735689
 10778.2  10.5581  4  2.08192  1.81202  0.739797
 10808.2  10.5284  4.0  2.05719  1.79251  0.740793
 10838.2  10.499  4  2.04998  1.7882  0.748208
 10868.2  10.4697  4.0  2.03417  1.77636  0.751952
 10888.2  10.4502  4.0  2.02342  1.76825  0.754331