File: MEX1_29702_processed.xdi
# XDI/1.0
# Mono.d_spacing: 3.13897
# Reference.Element: Ti
# ROI.start_bin: nan
# ROI.end_bin: nan
# Element.symbol: None
# Element.edge: None
# Processing.version: spec_processing_library v0.3.5
# Column.1: energy
# Column.2: bragg
# Column.3: count_time seconds
# Column.4: i0
# Column.5: i1
# Column.6: i2
# Describe.Column.1: energy - MEX1ES01ZEB01:CALC_ENERGY_EV
# Describe.Column.2: bragg - MEX1ES01ZEB01:BRAGG_WITH_OFFSET
# Describe.Column.3: count_time - MEX1ES01ZEB01:GATE_TIME_SET
# Describe.Column.4: i0 - MEX1ES01DAQ01:ch1:S:MeanValue_RBV
# Describe.Column.5: i1 - MEX1ES01DAQ01:ch2:S:MeanValue_RBV
# Describe.Column.6: i2 - MEX1ES01DAQ01:ch3:S:MeanValue_RBV
# Samples: [417, 417, 417, 417, 417, 417]
# ///
# Ti foil
#
# xdi from default mda2xdi preset for mex1.
#--------
#  energy   bragg   count_time   i0   i1   i2
 4765.86  24.4809  1  2.14068  1.71326  0.770392
 4795.86  24.3178  1.0  2.16347  1.78079  0.812293
 4825.86  24.1569  1  2.18587  1.84975  0.859723
 4855.86  23.9983  1.0  2.20748  1.91937  0.910921
 4885.86  23.8417  1  2.22829  1.9903  0.969
 4915.85  23.6873  1.0  2.24882  2.06327  1.03671
 4945.85  23.5349  1  2.26884  2.13777  1.10931
 4946.6  23.5312  1.0  2.26928  2.13963  1.11098
 4947.35  23.5274  1  2.26959  2.14138  1.11255
 4948.1  23.5236  1.0  2.27006  2.14314  1.11419
 4948.85  23.5198  1  2.27043  2.14492  1.11575
 4949.6  23.516  1.0  2.27073  2.14664  1.11714
 4950.35  23.5123  1  2.2711  2.14839  1.11861
 4951.1  23.5085  1.0  2.27147  2.15015  1.11999
 4951.85  23.5047  1  2.27192  2.15193  1.12123
 4952.6  23.5009  1.0  2.27766  2.15886  1.12527
 4953.35  23.4972  1  2.27813  2.16099  1.12753
 4954.1  23.4934  1.0  2.27844  2.16251  1.128
 4954.85  23.4896  1  2.27882  2.16437  1.12899
 4955.6  23.4859  1.0  2.27917  2.16597  1.12928
 4956.35  23.4821  1  2.2795  2.1678  1.13013
 4957.1  23.4783  1.0  2.28002  2.16991  1.13142
 4957.85  23.4746  1  2.28035  2.17143  1.13054
 4958.6  23.4708  1.0  2.28058  2.17305  1.12989
 4959.35  23.467  1  2.28101  2.17484  1.12846
 4960.1  23.4633  1.0  2.28137  2.17664  1.12597
 4960.85  23.4595  1  2.28177  2.17839  1.12161
 4961.6  23.4558  1.0  2.28202  2.18007  1.11377
 4962.35  23.452  1  2.28245  2.1819  1.09884
 4963.1  23.4483  1.0  2.28276  2.18363  1.06441
 4963.85  23.4445  1  2.28317  2.18542  0.954451
 4964.6  23.4407  1.0  2.28345  2.18714  0.664817
 4965.35  23.437  1  2.28386  2.18894  0.560815
 4966.1  23.4332  1.0  2.28411  2.19062  0.681997
 4966.85  23.4295  1  2.28434  2.1923  0.734538
 4967.6  23.4257  1.0  2.28465  2.19395  0.700199
 4968.35  23.422  1  2.28501  2.19569  0.643122
 4969.1  23.4183  1.0  2.28546  2.19753  0.604656
 4969.85  23.4145  1  2.28587  2.19938  0.587967
 4970.6  23.4108  1.0  2.28623  2.20111  0.574186
 4971.35  23.407  1  2.28664  2.20305  0.538741
 4972.1  23.4033  1.0  2.28708  2.2052  0.488878
 4972.85  23.3995  1  2.28726  2.20645  0.441138
 4973.6  23.3958  1.0  2.28751  2.20815  0.402975
 4974.35  23.3921  1  2.2877  2.20974  0.370544
 4975.1  23.3883  1.0  2.28807  2.2115  0.341021
 4975.85  23.3846  1  2.28842  2.21332  0.314671
 4976.6  23.3809  1.0  2.28861  2.21491  0.293521
 4977.35  23.3771  1  2.28889  2.21661  0.276445
 4978.1  23.3734  1.0  2.28923  2.21837  0.262256
 4978.85  23.3697  1  2.28939  2.21998  0.250813
 4979.6  23.3659  1.0  2.28973  2.22162  0.24214
 4980.35  23.3622  1  2.28991  2.2233  0.236461
 4981.1  23.3585  1.0  2.29022  2.22501  0.233614
 4981.85  23.3548  1  2.29051  2.22677  0.232437
 4982.6  23.351  1.0  2.29069  2.22835  0.232556
 4983.35  23.3473  1  2.29113  2.23023  0.234338
 4984.1  23.3436  1.0  2.2913  2.23178  0.23819
 4984.85  23.3399  1  2.29162  2.23358  0.243136
 4985.6  23.3362  1.0  2.2919  2.23529  0.247906
 4986.35  23.3324  1  2.29779  2.24241  0.251797
 4987.1  23.3287  1.0  2.29818  2.24424  0.253785
 4987.85  23.325  1  2.2985  2.24601  0.25486
 4988.6  23.3213  1.0  2.29888  2.24772  0.25602
 4989.35  23.3176  1  2.29913  2.24945  0.25742
 4990.1  23.3139  1.0  2.2995  2.25124  0.258764
 4990.85  23.3102  1  2.29989  2.25307  0.260195
 4991.6  23.3064  1.0  2.30024  2.2548  0.261308
 4992.35  23.3027  1  2.30056  2.25656  0.261865
 4993.1  23.299  1.0  2.30096  2.25844  0.261392
 4993.85  23.2953  1  2.30124  2.26007  0.259574
 4994.6  23.2916  1.0  2.30171  2.26199  0.256334
 4995.35  23.2879  1  2.30207  2.26371  0.251603
 4996.1  23.2842  1.0  2.30232  2.26551  0.245875
 4996.85  23.2805  1  2.30281  2.26735  0.239763
 4997.6  23.2768  1.0  2.30317  2.26915  0.234462
 4998.35  23.2731  1  2.30348  2.27088  0.230417
 4999.1  23.2694  1.0  2.30384  2.27266  0.22779
 4999.85  23.2657  1  2.3042  2.27447  0.226461
 5000.6  23.262  1.0  2.30445  2.27614  0.226039
 5001.35  23.2583  1  2.30484  2.27802  0.225731
 5002.1  23.2546  1.0  2.30505  2.27969  0.225336
 5002.85  23.251  1  2.30545  2.28149  0.225096
 5003.6  23.2473  1.0  2.30588  2.28331  0.225719
 5004.35  23.2436  1  2.30611  2.285  0.227483
 5005.1  23.2399  1.0  2.30653  2.28682  0.230875
 5005.85  23.2362  1  2.30687  2.28869  0.235752
 5006.6  23.2325  1.0  2.30716  2.29036  0.241693
 5007.35  23.2288  1  2.30756  2.29223  0.248144
 5008.1  23.2252  1.0  2.30785  2.29392  0.254385
 5008.85  23.2215  1  2.30816  2.29563  0.26001
 5009.6  23.2178  1.0  2.30851  2.29744  0.264489
 5010.35  23.2141  1  2.30881  2.29924  0.268081
 5011.1  23.2104  1.0  2.30908  2.30099  0.270935
 5011.85  23.2068  1  2.30947  2.30281  0.273477
 5012.6  23.2031  1.0  2.30983  2.30462  0.276137
 5013.35  23.1994  1  2.3102  2.30637  0.278985
 5014.1  23.1957  1.0  2.31042  2.30813  0.281935
 5014.85  23.1921  1  2.31078  2.30996  0.284964
 5015.6  23.1884  1.0  2.31112  2.31174  0.287935
 5035.85  23.0897  1  2.32296  2.36275  0.26164
 5065.84  22.9452  1.0  2.3396  2.43806  0.338269
 5095.84  22.8025  1  2.35556  2.51363  0.310971
 5125.84  22.6616  1.0  2.37105  2.5899  0.393672
 5155.84  22.5225  1  2.39178  2.6731  0.39769
 5185.84  22.3851  1.0  2.40591  2.74978  0.475754
 5215.83  22.2494  1  2.41946  2.82638  0.495459
 5245.83  22.1155  1.0  2.43225  2.90252  0.550518
 5275.83  21.9831  1  2.44618  2.98067  0.601005
 5305.83  21.8524  1.0  2.45311  3.05058  0.640868
 5335.83  21.7233  1  2.46382  3.12545  0.698329
 5365.82  21.5957  1.0  2.47369  3.1996  0.753656
 5395.82  21.4697  1  2.48396  3.27467  0.805225
 5425.82  21.3452  1.0  2.48897  3.343  0.866677
 5455.82  21.2221  1  2.4963  3.41455  0.930351
 5485.82  21.1005  1.0  2.50384  3.48654  0.991802
 5515.81  20.9803  1  2.51131  3.55861  1.05803
 5545.81  20.8615  1.0  2.51651  3.62744  1.12826
 5575.81  20.7441  1  2.52105  3.69505  1.19845
 5605.81  20.628  1.0  2.52546  3.76242  1.26999
 5635.81  20.5132  1  2.52902  3.82843  1.34641
 5665.8  20.3998  1.0  2.53188  3.89317  1.42595
 5695.8  20.2876  1  2.53399  3.95634  1.50692
 5725.8  20.1767  1.0  2.5362  4.01971  1.59036
 5755.8  20.067  1  2.53784  4.08181  1.67773
 5785.79  19.9585  1.0  2.53779  4.14085  1.7671
 5815.79  19.8512  1  2.53681  4.19792  1.85798
 5845.79  19.7451  1.0  2.53448  4.25237  1.9501
 5875.79  19.6402  1  2.52894  4.30064  2.04231
 5905.78  19.5363  1.0  2.48224  4.27732  2.10191
 5935.78  19.4336  1  2.56402  4.47625  2.27507
 5965.78  19.332  1.0  2.55187  4.51191  2.36993
 5995.78  19.2315  1  2.53934  4.54589  2.46582
 6025.78  19.132  1.0  2.53258  4.58931  2.5692
 6055.77  19.0336  1  2.52741  4.63502  2.67682
 6085.77  18.9362  1.0  2.52196  4.67958  2.78586
 6115.77  18.8398  1  2.51712  4.72451  2.89778
 6145.76  18.7444  1.0  2.51134  4.76691  3.01061
 6175.76  18.65  1  2.50472  4.80718  3.1244
 6195.76  18.5876  1  2.50082  4.83467  3.20192