File: MEX1_29697_processed.xdi
# XDI/1.0
# Mono.d_spacing: 3.13897
# Reference.Element: Co
# ROI.start_bin: nan
# ROI.end_bin: nan
# Element.symbol: None
# Element.edge: None
# Processing.version: spec_processing_library v0.3.5
# Column.1: energy
# Column.2: bragg
# Column.3: count_time seconds
# Column.4: i0
# Column.5: i1
# Column.6: i2
# Describe.Column.1: energy - MEX1ES01ZEB01:CALC_ENERGY_EV
# Describe.Column.2: bragg - MEX1ES01ZEB01:BRAGG_WITH_OFFSET
# Describe.Column.3: count_time - MEX1ES01ZEB01:GATE_TIME_SET
# Describe.Column.4: i0 - MEX1ES01DAQ01:ch1:S:MeanValue_RBV
# Describe.Column.5: i1 - MEX1ES01DAQ01:ch2:S:MeanValue_RBV
# Describe.Column.6: i2 - MEX1ES01DAQ01:ch3:S:MeanValue_RBV
# Samples: [417, 417, 417, 417, 417, 417]
# ///
# Co foil
#
# xdi from default mda2xdi preset for mex1.
#--------
#  energy   bragg   count_time   i0   i1   i2
 7508.63  15.2493  1  4.29672  2.85584  2.40164
 7538.64  15.1872  1.0  4.27046  2.8524  2.4235
 7568.64  15.1255  1  4.24489  2.84897  2.44522
 7598.63  15.0644  1.0  4.22017  2.84585  2.46668
 7628.63  15.0038  1  4.19318  2.84083  2.48565
 7658.63  14.9436  1.0  4.1675  2.83647  2.50247
 7688.62  14.884  1  4.14058  2.83093  2.50644
 7689.37  14.8825  1.0  4.13963  2.83058  2.50579
 7690.12  14.881  1  4.13893  2.83037  2.50515
 7690.87  14.8795  1.0  4.13793  2.83002  2.50439
 7691.62  14.8781  1  4.13692  2.82962  2.50335
 7692.37  14.8766  1.0  4.13603  2.82935  2.50243
 7693.12  14.8751  1  4.13498  2.82897  2.50115
 7693.87  14.8736  1.0  4.13413  2.82869  2.50005
 7694.62  14.8721  1  4.13314  2.82833  2.4986
 7695.37  14.8706  1.0  4.13234  2.82811  2.4971
 7696.12  14.8692  1  4.13138  2.82773  2.49534
 7696.87  14.8677  1.0  4.13014  2.8272  2.49328
 7697.62  14.8662  1  4.12924  2.82692  2.49091
 7698.37  14.8647  1.0  4.13647  2.83225  2.4934
 7699.12  14.8632  1  4.13698  2.83278  2.49125
 7699.87  14.8617  1.0  4.13555  2.83216  2.48757
 7700.62  14.8603  1  4.134  2.8314  2.48317
 7701.37  14.8588  1.0  4.13225  2.83058  2.47794
 7702.12  14.8573  1  4.12887  2.82854  2.47082
 7702.87  14.8558  1.0  4.11766  2.82114  2.45772
 7703.62  14.8543  1  4.05089  2.77571  2.4098
 7704.37  14.8529  1.0  4.06406  2.78504  2.40683
 7705.12  14.8514  1  4.13134  2.83148  2.43163
 7705.87  14.8499  1.0  4.13158  2.83197  2.40929
 7706.62  14.8484  1  4.13019  2.83136  2.37166
 7707.37  14.847  1.0  4.12847  2.83043  2.29905
 7708.12  14.8455  1  4.1268  2.82968  2.14024
 7708.87  14.844  1.0  4.12468  2.82852  1.88185
 7709.62  14.8425  1  4.12209  2.82705  1.64745
 7710.37  14.841  1.0  4.11751  2.82427  1.47541
 7711.12  14.8396  1  4.09707  2.81047  1.3479
 7711.87  14.8381  1.0  4.02188  2.75928  1.24771
 7712.62  14.8366  1  4.07684  2.79733  1.22635
 7713.37  14.8351  1.0  4.11343  2.82269  1.22727
 7714.12  14.8337  1  4.0614  2.78728  1.20424
 7714.87  14.8322  1.0  4.04005  2.7729  1.1604
 7715.62  14.8307  1  4.11565  2.82515  1.10805
 7716.37  14.8292  1.0  4.12377  2.83103  1.0211
 7717.12  14.8278  1  4.12222  2.8303  0.933325
 7717.87  14.8263  1.0  4.12045  2.8294  0.849832
 7718.62  14.8248  1  4.11897  2.82864  0.77414
 7719.37  14.8233  1.0  4.11702  2.8277  0.711958
 7720.12  14.8219  1  4.11486  2.82652  0.66339
 7720.87  14.8204  1.0  4.11162  2.82454  0.622366
 7721.62  14.8189  1  4.10077  2.81744  0.580797
 7722.37  14.8175  1.0  4.04101  2.77671  0.530818
 7723.12  14.816  1  4.0439  2.779  0.489173
 7723.87  14.8145  1.0  4.11116  2.82552  0.461546
 7724.62  14.813  1  4.11414  2.82795  0.43591
 7725.37  14.8116  1.0  4.11303  2.8274  0.418484
 7726.12  14.8101  1  4.11179  2.82689  0.406823
 7726.87  14.8086  1.0  4.11089  2.82662  0.398713
 7727.62  14.8072  1  4.10966  2.82609  0.393067
 7728.37  14.8057  1.0  4.10872  2.8257  0.389438
 7729.12  14.8042  1  4.10782  2.82541  0.387503
 7729.87  14.8027  1.0  4.10683  2.82504  0.385582
 7730.62  14.8013  1  4.10596  2.82475  0.382041
 7731.37  14.7998  1.0  4.10496  2.82433  0.375989
 7732.12  14.7983  1  4.10396  2.824  0.368371
 7732.87  14.7969  1.0  4.10315  2.82374  0.361689
 7733.62  14.7954  1  4.11155  2.82987  0.359278
 7734.37  14.7939  1.0  4.11059  2.82947  0.360571
 7735.12  14.7925  1  4.10967  2.82914  0.365682
 7735.87  14.791  1.0  4.10889  2.82888  0.373028
 7736.62  14.7895  1  4.108  2.82856  0.380895
 7737.37  14.7881  1.0  4.10697  2.82817  0.387871
 7738.12  14.7866  1  4.10595  2.82782  0.393372
 7738.87  14.7851  1.0  4.10518  2.82763  0.397674
 7739.62  14.7837  1  4.10424  2.82726  0.401484
 7740.37  14.7822  1.0  4.10336  2.82692  0.404952
 7741.12  14.7807  1  4.1025  2.82664  0.407949
 7741.87  14.7793  1.0  4.10162  2.82639  0.410429
 7742.62  14.7778  1  4.10055  2.82591  0.412788
 7743.37  14.7764  1.0  4.09973  2.82573  0.415163
 7744.12  14.7749  1  4.09887  2.8254  0.41737
 7744.87  14.7734  1.0  4.09792  2.82508  0.418843
 7745.62  14.772  1  4.09709  2.82481  0.419015
 7746.37  14.7705  1.0  4.09613  2.82451  0.417532
 7747.12  14.769  1  4.0954  2.82429  0.414286
 7747.87  14.7676  1.0  4.09443  2.82389  0.40942
 7748.62  14.7661  1  4.09361  2.82358  0.403239
 7749.37  14.7647  1.0  4.09287  2.82336  0.396115
 7750.12  14.7632  1  4.09179  2.82302  0.388174
 7750.87  14.7617  1.0  4.09092  2.8227  0.379722
 7751.62  14.7603  1  4.09016  2.82251  0.37096
 7752.37  14.7588  1.0  4.08922  2.82213  0.362292
 7753.12  14.7574  1  4.08839  2.82188  0.353906
 7753.87  14.7559  1.0  4.08748  2.82149  0.346077
 7754.62  14.7544  1  4.08663  2.82129  0.3391
 7755.37  14.753  1.0  4.08567  2.82093  0.333197
 7756.12  14.7515  1  4.08495  2.82069  0.328597
 7756.87  14.7501  1.0  4.08404  2.82036  0.325419
 7757.62  14.7486  1  4.08309  2.82008  0.323778
 7758.37  14.7471  1.0  4.08218  2.8197  0.323543
 7778.62  14.7079  1  4.0644  2.81565  0.448765
 7808.61  14.6501  1.0  4.03814  2.80932  0.325719
 7838.61  14.5928  1  3.98412  2.78327  0.459696
 7868.61  14.5359  1.0  3.98559  2.79586  0.36343
 7898.6  14.4795  1  3.95987  2.78907  0.501581
 7928.6  14.4236  1.0  3.93288  2.78112  0.454123
 7958.6  14.368  1  3.90832  2.77463  0.414711
 7988.59  14.3129  1.0  3.89213  2.77391  0.500986
 8018.59  14.2582  1  3.86619  2.7659  0.495616
 8048.59  14.204  1.0  3.83951  2.7571  0.483452
 8078.58  14.1501  1  3.80342  2.74134  0.520066
 8108.58  14.0967  1.0  3.7923  2.74326  0.547727
 8138.58  14.0437  1  3.76648  2.73441  0.54063
 8168.57  13.9911  1.0  3.74113  2.72563  0.556687
 8198.57  13.9388  1  3.71599  2.71671  0.574813
 8228.57  13.887  1.0  3.69125  2.70788  0.595405
 8258.56  13.8356  1  3.66685  2.6991  0.595098
 8288.56  13.7845  1.0  3.64205  2.68981  0.608391
 8318.56  13.7338  1  3.61819  2.68099  0.625389
 8348.56  13.6835  1.0  3.59268  2.67068  0.639521
 8378.56  13.6336  1  3.56883  2.6614  0.649646
 8408.55  13.584  1.0  3.54495  2.65191  0.658044
 8438.55  13.5348  1  3.52126  2.64232  0.671316
 8468.55  13.4859  1.0  3.49749  2.63252  0.685101
 8498.54  13.4374  1  3.47409  2.62273  0.697942
 8528.54  13.3893  1.0  3.45028  2.61254  0.707712
 8558.54  13.3415  1  3.426  2.60174  0.718047
 8588.53  13.294  1.0  3.37085  2.56728  0.722271
 8618.53  13.2469  1  3.09095  2.36082  0.678105
 8648.53  13.2002  1.0  3.11704  2.38723  0.69883
 8678.52  13.1537  1  3.34551  2.56938  0.765324
 8708.52  13.1076  1.0  3.32229  2.55847  0.775456
 8738.52  13.0618  1  3.29992  2.54811  0.78603
 8768.51  13.0163  1.0  3.2778  2.53771  0.796899
 8798.51  12.9712  1  3.25594  2.52723  0.808061
 8828.51  12.9263  1.0  3.23423  2.5169  0.819005
 8858.5  12.8818  1  3.21241  2.50628  0.829215
 8888.5  12.8376  1.0  3.19064  2.49558  0.839395
 8918.5  12.7937  1  3.15835  2.47643  0.846969
 8938.49  12.7646  1  3.15653  2.47896  0.8573