File: MEX1_29705_processed.xdi
# XDI/1.0
# Mono.d_spacing: 3.13897
# Reference.Element: Ag
# ROI.start_bin: nan
# ROI.end_bin: nan
# Element.symbol: None
# Element.edge: None
# Processing.version: spec_processing_library v0.3.5
# Column.1: energy
# Column.2: bragg
# Column.3: count_time seconds
# Column.4: i0
# Column.5: i1
# Column.6: i2
# Describe.Column.1: energy - MEX1ES01ZEB01:CALC_ENERGY_EV
# Describe.Column.2: bragg - MEX1ES01ZEB01:BRAGG_WITH_OFFSET
# Describe.Column.3: count_time - MEX1ES01ZEB01:GATE_TIME_SET
# Describe.Column.4: i0 - MEX1ES01DAQ01:ch1:S:MeanValue_RBV
# Describe.Column.5: i1 - MEX1ES01DAQ01:ch2:S:MeanValue_RBV
# Describe.Column.6: i2 - MEX1ES01DAQ01:ch3:S:MeanValue_RBV
# Samples: [417, 417, 417, 417, 417, 417]
# ///
# Ag foil
#
# xdi from default mda2xdi preset for mex1.
#--------
#  energy   bragg   count_time   i0   i1   i2
 3150.95  38.8122  1.0  1.23991  0.603939  3.95532
 3180.95  38.3789  1  1.11492  0.602381  3.97789
 3210.95  37.9562  1.0  1.14679  0.60656  4.01905
 3240.95  37.5436  1  1.20285  0.59422  3.93463
 3270.94  37.1409  1.0  1.25325  0.603577  3.98607
 3300.94  36.7475  1  1.33538  0.600444  3.93901
 3330.94  36.3632  1.0  1.2556  0.591916  3.88854
 3331.69  36.3537  1  1.27288  0.592278  3.88537
 3332.44  36.3442  1.0  1.28695  0.59102  3.8701
 3333.19  36.3347  1  1.29792  0.59391  3.88981
 3333.94  36.3252  1.0  1.3059  0.59363  3.88477
 3334.69  36.3158  1  1.31228  0.593555  3.88094
 3335.44  36.3063  1.0  1.31697  0.593519  3.87911
 3336.19  36.2968  1  1.31992  0.593378  3.87698
 3336.94  36.2874  1.0  1.32026  0.593235  3.87518
 3337.69  36.2779  1  1.31653  0.592909  3.87307
 3338.44  36.2685  1.0  1.31176  0.592466  3.87185
 3339.19  36.259  1  1.30962  0.592209  3.86916
 3339.94  36.2496  1.0  1.31178  0.593096  3.87417
 3340.69  36.2402  1  1.3091  0.592615  3.87244
 3341.44  36.2307  1.0  1.30393  0.59229  3.87025
 3342.19  36.2213  1  1.29849  0.591922  3.86831
 3342.94  36.2119  1.0  1.29456  0.591511  3.86658
 3343.69  36.2025  1  1.29207  0.591253  3.86493
 3344.44  36.1931  1.0  1.2906  0.590925  3.8629
 3345.19  36.1837  1  1.29009  0.590768  3.86165
 3345.94  36.1743  1.0  1.29043  0.590601  3.85996
 3346.69  36.1649  1  1.29149  0.590449  3.85832
 3347.44  36.1555  1.0  1.29378  0.590402  3.85603
 3348.19  36.1462  1  1.29763  0.590378  3.85414
 3348.94  36.1368  1.0  1.30261  0.590387  3.85195
 3349.69  36.1274  1  1.30727  0.590515  3.85058
 3350.44  36.1181  1.0  1.30966  0.590452  3.84894
 3351.19  36.1087  1  1.30956  0.590189  3.84681
 3351.94  36.0994  1.0  1.30893  0.589925  3.84528
 3352.69  36.09  1  1.30973  0.589827  3.84301
 3353.44  36.0807  1.0  1.31254  0.589723  3.84085
 3354.19  36.0713  1  1.31624  0.589811  3.83974
 3354.94  36.062  1.0  1.31902  0.58979  3.83806
 3355.69  36.0527  1  1.3196  0.589642  3.83671
 3356.44  36.0434  1.0  1.31762  0.589335  3.83411
 3357.19  36.0341  1  1.314  0.58907  3.83266
 3357.94  36.0247  1.0  1.31026  0.588674  3.83085
 3358.69  36.0154  1  1.30765  0.588296  3.82859
 3359.44  36.0061  1.0  1.30695  0.588152  3.82628
 3360.19  35.9969  1  1.30831  0.588054  3.82476
 3360.94  35.9876  1.0  1.31139  0.587974  3.82257
 3361.69  35.9783  1  1.31531  0.587045  3.81275
 3362.44  35.969  1.0  1.31982  0.58805  3.81884
 3363.19  35.9597  1  1.3237  0.588132  3.8171
 3363.94  35.9505  1.0  1.32673  0.588043  3.81568
 3364.69  35.9412  1  1.32897  0.588018  3.81384
 3365.44  35.9319  1.0  1.33045  0.58783  3.81228
 3366.19  35.9227  1  1.33143  0.587789  3.81038
 3366.94  35.9134  1.0  1.33174  0.586801  3.80194
 3367.69  35.9042  1  1.33209  0.586856  3.80138
 3368.44  35.895  1.0  1.33272  0.587392  3.80537
 3369.19  35.8857  1  1.33348  0.587165  3.80245
 3369.94  35.8765  1.0  1.33787  0.588028  3.80632
 3370.69  35.8673  1  1.33935  0.587861  3.80367
 3371.44  35.8581  1.0  1.341  0.587882  3.80242
 3372.19  35.8489  1  1.34254  0.587669  3.80054
 3372.94  35.8397  1.0  1.3435  0.586864  3.7918
 3373.69  35.8305  1  1.34369  0.584706  3.77279
 3374.44  35.8213  1.0  1.34447  0.587452  3.79579
 3375.19  35.8121  1  1.34436  0.5872  3.79303
 3375.94  35.8029  1.0  1.34411  0.586993  3.79039
 3376.69  35.7937  1  1.34329  0.584287  3.76798
 3377.44  35.7846  1.0  1.34358  0.586964  3.78963
 3378.19  35.7754  1  1.34329  0.586616  3.78633
 3378.94  35.7662  1.0  1.34306  0.586306  3.78328
 3379.69  35.7571  1  1.34276  0.585243  3.77479
 3380.44  35.7479  1.0  1.34302  0.586157  3.78149
 3381.19  35.7388  1  1.34346  0.585949  3.77833
 3381.94  35.7296  1.0  1.34419  0.585722  3.7768
 3382.69  35.7205  1  1.34543  0.585613  3.77406
 3383.44  35.7114  1.0  1.34725  0.585318  3.77012
 3384.19  35.7022  1  1.35  0.585681  3.77153
 3384.94  35.6931  1.0  1.3532  0.585695  3.76946
 3385.69  35.684  1  1.35694  0.585727  3.7676
 3386.44  35.6749  1.0  1.36086  0.585816  3.76559
 3387.19  35.6658  1  1.36473  0.585838  3.76395
 3387.94  35.6567  1.0  1.36836  0.586001  3.76207
 3388.69  35.6476  1  1.37164  0.585957  3.76037
 3389.44  35.6385  1.0  1.37466  0.585928  3.75825
 3390.19  35.6294  1  1.37748  0.585834  3.75662
 3390.94  35.6203  1.0  1.38022  0.585807  3.75391
 3391.69  35.6112  1  1.38289  0.585897  3.75308
 3392.44  35.6022  1.0  1.38513  0.584698  3.74071
 3393.19  35.5931  1  1.38773  0.585676  3.74625
 3393.94  35.584  1.0  1.39001  0.585485  3.74436
 3394.69  35.575  1  1.39199  0.584979  3.73806
 3395.44  35.5659  1.0  1.39359  0.583876  3.72642
 3396.19  35.5569  1  1.39541  0.584753  3.73216
 3396.94  35.5478  1.0  1.39708  0.585854  3.74079
 3397.69  35.5388  1  1.39838  0.586166  3.74135
 3398.44  35.5298  1.0  1.39963  0.585925  3.73926
 3399.19  35.5207  1  1.40073  0.585323  3.73245
 3399.94  35.5117  1.0  1.40513  0.586599  3.74031
 3400.69  35.5027  1  1.40655  0.586546  3.73838
 3420.94  35.2611  1.0  1.3838  0.57902  3.66266
 3450.94  34.9098  1  1.47296  0.579998  3.58067
 3480.93  34.5659  1.0  1.54701  0.58107  3.48923
 3510.93  34.2293  1  1.60545  0.581946  3.384
 3540.93  33.8997  1.0  1.67712  0.582449  3.24874
 3570.93  33.5769  1  1.75031  0.586451  3.11671
 3600.93  33.2606  1.0  1.79962  0.591204  2.99036
 3630.93  32.9506  1  1.80439  0.591617  2.8546
 3660.93  32.6468  1.0  1.87854  0.605595  2.73999
 3690.92  32.349  1  1.93225  0.624113  2.66266
 3720.92  32.0569  1.0  2.00491  0.646843  2.57435
 3750.92  31.7704  1  2.08  0.672493  2.47838
 3780.92  31.4893  1.0  2.14635  0.702134  2.39779
 3810.92  31.2134  1  2.22474  0.734323  2.28568
 3840.92  30.9426  1.0  2.28689  0.769423  2.19394
 3870.92  30.6768  1  2.35588  0.808969  2.0961
 3900.91  30.4158  1.0  2.4322  0.853086  1.98661
 3930.91  30.1594  1  2.49764  0.897968  1.87147
 3960.91  29.9076  1.0  2.56202  0.944676  1.73626
 3990.91  29.6602  1  2.62665  0.997822  1.61914
 4020.91  29.417  1.0  2.68539  1.05405  1.50768
 4050.91  29.1781  1  2.75043  1.11891  1.41792
 4080.9  28.9432  1.0  2.81778  1.18549  1.29329
 4110.9  28.7122  1  2.87387  1.2537  1.18192
 4140.9  28.4851  1.0  2.93351  1.33072  1.09836
 4170.9  28.2617  1  2.99293  1.41198  1.01396
 4200.9  28.042  1.0  3.04829  1.49633  0.935698
 4230.9  27.8258  1  3.1198  1.59312  0.862122
 4260.89  27.6131  1.0  3.16748  1.68675  0.822671
 4290.89  27.4038  1  3.22335  1.7879  0.779984
 4320.89  27.1978  1.0  3.27616  1.89197  0.740461
 4350.89  26.9949  1  3.33616  2.00598  0.718535
 4380.89  26.7953  1.0  3.38706  2.12016  0.70948
 4410.89  26.5986  1  3.43759  2.23912  0.713429
 4440.88  26.405  1.0  3.48206  2.35765  0.715362
 4470.88  26.2143  1  3.53154  2.48504  0.739204
 4500.88  26.0264  1.0  3.58153  2.61801  0.778408
 4530.88  25.8413  1  3.62368  2.74854  0.818293
 4560.88  25.6589  1.0  3.66523  2.88255  0.86767
 4580.88  25.5388  1.0  3.69131  2.9727  0.905015