File: MEX1_29691_processed.xdi
# XDI/1.0
# Mono.d_spacing: 3.13897
# Reference.Element: Au
# ROI.start_bin: nan
# ROI.end_bin: nan
# Element.symbol: None
# Element.edge: None
# Processing.version: spec_processing_library v0.3.5
# Column.1: energy
# Column.2: bragg
# Column.3: count_time seconds
# Column.4: i0
# Column.5: i1
# Column.6: i2
# Describe.Column.1: energy - MEX1ES01ZEB01:CALC_ENERGY_EV
# Describe.Column.2: bragg - MEX1ES01ZEB01:BRAGG_WITH_OFFSET
# Describe.Column.3: count_time - MEX1ES01ZEB01:GATE_TIME_SET
# Describe.Column.4: i0 - MEX1ES01DAQ01:ch1:S:MeanValue_RBV
# Describe.Column.5: i1 - MEX1ES01DAQ01:ch2:S:MeanValue_RBV
# Describe.Column.6: i2 - MEX1ES01DAQ01:ch3:S:MeanValue_RBV
# Samples: [417, 417, 417, 417, 417, 417]
# ///
# Au foil
#
# xdi from default mda2xdi preset for mex1.
#--------
#  energy   bragg   count_time   i0   i1   i2
 11718.1  9.70271  1.0  3.31679  2.97722  3.13033
 11748.1  9.67767  1  3.28782  2.95345  3.12503
 11778.1  9.65279  1.0  3.26342  2.93405  3.12352
 11808.1  9.62803  1  3.23691  2.91247  3.11891
 11838.1  9.6034  1.0  3.21033  2.89075  3.11145
 11868.1  9.5789  1  3.18497  2.87007  3.09731
 11898.1  9.55454  1.0  3.14823  2.83907  3.0282
 11898.8  9.55394  1  3.13137  2.82405  3.00892
 11899.6  9.55334  1.0  3.12469  2.81796  2.99921
 11900.3  9.55273  1  3.13062  2.82342  3.00098
 11901.1  9.55212  1.0  3.14515  2.83647  3.0108
 11901.8  9.55151  1  3.15153  2.84236  3.01232
 11902.6  9.5509  1.0  3.15196  2.84275  3.00816
 11903.3  9.5503  1  3.15135  2.8423  3.00178
 11904.1  9.54969  1.0  3.15023  2.84129  2.99449
 11904.8  9.54908  1  3.14749  2.83887  2.98525
 11905.6  9.54848  1.0  3.13898  2.83134  2.96989
 11906.3  9.54787  1  3.1217  2.81572  2.94491
 11907.1  9.54726  1.0  3.11488  2.80942  2.92884
 11907.8  9.54666  1  3.12474  2.81853  2.92742
 11908.6  9.54605  1.0  3.12999  2.82331  2.91998
 11909.3  9.54544  1  3.11942  2.81375  2.89593
 11910.1  9.54484  1.0  3.11994  2.81433  2.88028
 11910.8  9.54423  1  3.12898  2.82267  2.86927
 11911.6  9.54362  1.0  3.1446  2.83666  2.86138
 11912.3  9.54302  1  3.14789  2.83975  2.83768
 11913.1  9.54241  1.0  3.14795  2.83996  2.80552
 11913.8  9.5418  1  3.14726  2.83923  2.766
 11914.6  9.5412  1.0  3.14594  2.83822  2.71692
 11915.3  9.54059  1  3.1423  2.83489  2.65457
 11916.1  9.53999  1.0  3.13274  2.82632  2.57193
 11916.8  9.53938  1  3.11554  2.81096  2.46374
 11917.6  9.53877  1.0  3.11344  2.80902  2.34394
 11918.3  9.53817  1  3.12107  2.81605  2.20661
 11919.1  9.53756  1.0  3.13545  2.82909  2.05462
 11919.8  9.53696  1  3.13969  2.8332  1.88992
 11920.6  9.53635  1.0  3.14011  2.83346  1.7374
 11921.3  9.53575  1  3.13971  2.83314  1.61547
 11922.1  9.53514  1.0  3.13921  2.83275  1.52871
 11922.8  9.53453  1  3.13862  2.83207  1.4714
 11923.6  9.53393  1.0  3.1378  2.83146  1.43726
 11924.3  9.53333  1  3.13705  2.8308  1.41989
 11925.1  9.53272  1.0  3.13622  2.83014  1.41372
 11925.8  9.53211  1  3.13559  2.82967  1.41266
 11926.6  9.53151  1.0  3.13478  2.82896  1.41183
 11927.3  9.5309  1  3.13375  2.8281  1.40743
 11928.1  9.5303  1.0  3.13299  2.82756  1.39832
 11928.8  9.52969  1  3.13221  2.82688  1.38434
 11929.6  9.52909  1.0  3.13143  2.82626  1.36663
 11930.3  9.52849  1  3.13068  2.8256  1.34657
 11931.1  9.52788  1.0  3.1298  2.82486  1.32676
 11931.8  9.52728  1  3.12895  2.82408  1.30871
 11932.6  9.52667  1.0  3.1282  2.82341  1.29387
 11933.3  9.52607  1  3.12752  2.82292  1.2825
 11934.1  9.52547  1.0  3.1265  2.82227  1.27431
 11934.8  9.52486  1  3.12565  2.82145  1.26896
 11935.6  9.52426  1.0  3.12501  2.82067  1.26508
 11936.3  9.52365  1  3.12405  2.82  1.26124
 11937.1  9.52305  1.0  3.12326  2.81939  1.25645
 11937.8  9.52245  1  3.13018  2.82559  1.25284
 11938.6  9.52184  1.0  3.12936  2.82482  1.24547
 11939.3  9.52124  1  3.12852  2.82419  1.23829
 11940.1  9.52063  1.0  3.12761  2.82352  1.23169
 11940.8  9.52003  1  3.12686  2.82292  1.2235
 11941.6  9.51943  1.0  3.126  2.82226  1.21143
 11942.3  9.51882  1  3.12522  2.82156  1.19322
 11943.1  9.51822  1.0  3.12455  2.82084  1.16839
 11943.8  9.51762  1  3.12359  2.82004  1.13933
 11944.6  9.51702  1.0  3.12268  2.81936  1.11017
 11945.3  9.51641  1  3.12206  2.81871  1.08533
 11946.1  9.51581  1.0  3.12114  2.81814  1.06854
 11946.8  9.51521  1  3.12029  2.81743  1.06179
 11947.6  9.5146  1.0  3.11964  2.81678  1.06465
 11948.3  9.514  1  3.1185  2.81601  1.07553
 11949.1  9.5134  1.0  3.11777  2.81527  1.09137
 11949.8  9.51279  1  3.11689  2.81457  1.10918
 11950.6  9.51219  1.0  3.11614  2.81389  1.12596
 11951.3  9.51159  1  3.11522  2.81316  1.13971
 11952.1  9.51099  1.0  3.11447  2.81251  1.14912
 11952.8  9.51039  1  3.11365  2.81179  1.15475
 11953.6  9.50978  1.0  3.11275  2.81113  1.15754
 11954.3  9.50918  1  3.11173  2.81004  1.15934
 11955.1  9.50858  1.0  3.11104  2.80957  1.16177
 11955.8  9.50798  1  3.11028  2.80889  1.16512
 11956.6  9.50738  1.0  3.10961  2.80834  1.16924
 11957.3  9.50677  1  3.10878  2.80769  1.17302
 11958.1  9.50617  1.0  3.10808  2.807  1.17569
 11958.8  9.50557  1  3.10657  2.80597  1.17571
 11959.6  9.50497  1.0  3.10633  2.8058  1.17367
 11960.3  9.50437  1  3.10532  2.80487  1.16872
 11961.1  9.50377  1.0  3.10455  2.80418  1.16134
 11961.8  9.50317  1  3.10386  2.80354  1.15235
 11962.6  9.50256  1.0  3.10304  2.80294  1.14207
 11963.3  9.50196  1  3.10206  2.80216  1.13112
 11964.1  9.50136  1.0  3.10125  2.80136  1.11967
 11964.8  9.50076  1  3.10047  2.80092  1.10863
 11965.6  9.50016  1.0  3.09991  2.80023  1.0978
 11966.3  9.49956  1  3.09888  2.79946  1.08779
 11967.1  9.49896  1.0  3.09795  2.79862  1.07888
 11967.8  9.49836  1  3.09722  2.79802  1.07144
 11988.1  9.48215  1.0  3.08615  2.78936  1.15127
 12018.1  9.45826  1  3.0622  2.76982  1.124
 12048.1  9.4345  1.0  3.01406  2.72814  1.14569
 12078.1  9.41087  1  3.01098  2.72733  1.12506
 12108.1  9.38735  1.0  2.98579  2.7064  1.14118
 12138.1  9.36393  1  2.96069  2.68553  1.12949
 12168.1  9.34063  1.0  2.93716  2.66597  1.13457
 12198.1  9.31746  1  2.91129  2.64433  1.14202
 12228  9.29442  1.0  2.88337  2.62075  1.12468
 12258  9.27147  1  2.85001  2.59216  1.14003
 12288  9.24863  1.0  2.82207  2.56843  1.13723
 12318  9.22591  1  2.79745  2.54767  1.13223
 12348  9.2033  1.0  2.77261  2.52685  1.14509
 12378  9.18082  1  2.74952  2.50715  1.14062
 12408  9.15843  1.0  2.72453  2.48598  1.14146
 12438  9.13615  1  2.69998  2.46527  1.14861
 12468  9.11399  1.0  2.67458  2.44364  1.1488
 12498  9.09193  1  2.65316  2.42563  1.14802
 12528  9.06997  1.0  2.62945  2.40546  1.15266
 12558  9.04813  1  2.60588  2.38526  1.15687
 12588  9.02639  1.0  2.5821  2.36477  1.15631
 12618  9.00475  1  2.55773  2.3439  1.15572
 12648  8.98322  1.0  2.53343  2.32306  1.15903
 12678  8.96179  1  2.50926  2.30223  1.16129
 12708  8.94047  1.0  2.48528  2.28156  1.16142
 12738  8.91924  1  2.45715  2.25695  1.1588
 12768  8.89812  1.0  2.43822  2.241  1.16261
 12798  8.87709  1  2.4149  2.22065  1.16462
 12827.9  8.85617  1.0  2.391  2.19989  1.16521
 12857.9  8.83534  1  2.36642  2.17865  1.16429
 12887.9  8.81462  1.0  2.3435  2.15866  1.16452
 12917.9  8.79399  1  2.31919  2.13745  1.16467
 12947.9  8.77345  1.0  2.2965  2.11757  1.16546
 12977.9  8.75302  1  2.27283  2.09681  1.16497
 13007.9  8.73268  1.0  2.2494  2.07643  1.16414
 13037.9  8.71243  1  2.22561  2.05544  1.16329
 13067.9  8.69228  1.0  2.20079  2.03361  1.16185
 13097.9  8.67222  1  2.17727  2.013  1.16107
 13127.9  8.65225  1.0  2.15317  1.99165  1.1597
 13147.9  8.63899  1.0  2.1376  1.97784  1.15852