File: MEX1_29689_processed.xdi
# XDI/1.0
# Mono.d_spacing: 3.13897
# Reference.Element: Pb
# ROI.start_bin: nan
# ROI.end_bin: nan
# Element.symbol: None
# Element.edge: None
# Processing.version: spec_processing_library v0.3.5
# Column.1: energy
# Column.2: bragg
# Column.3: count_time seconds
# Column.4: i0
# Column.5: i1
# Column.6: i2
# Describe.Column.1: energy - MEX1ES01ZEB01:CALC_ENERGY_EV
# Describe.Column.2: bragg - MEX1ES01ZEB01:BRAGG_WITH_OFFSET
# Describe.Column.3: count_time - MEX1ES01ZEB01:GATE_TIME_SET
# Describe.Column.4: i0 - MEX1ES01DAQ01:ch1:S:MeanValue_RBV
# Describe.Column.5: i1 - MEX1ES01DAQ01:ch2:S:MeanValue_RBV
# Describe.Column.6: i2 - MEX1ES01DAQ01:ch3:S:MeanValue_RBV
# Samples: [417, 417, 417, 417, 417, 417]
# ///
# Pb foil
#
# xdi from default mda2xdi preset for mex1.
#--------
#  energy   bragg   count_time   i0   i1   i2
 12833.9  8.85202  1  2.38887  2.19803  3.81743
 12863.9  8.83119  1.0  2.36312  2.17565  3.80476
 12893.9  8.81048  1  2.34214  2.15734  3.79891
 12923.9  8.78987  1.0  2.31574  2.13428  3.7815
 12953.9  8.76936  1  2.28853  2.11035  3.75999
 12983.9  8.74894  1.0  2.27275  2.09675  3.74441
 13013.9  8.72862  1  2.24942  2.07638  3.66214
 13014.6  8.72813  1.0  2.25388  2.08059  3.66603
 13015.4  8.72762  1  2.25327  2.08009  3.66074
 13016.1  8.72712  1.0  2.25248  2.07935  3.65536
 13016.9  8.72661  1  2.25165  2.07865  3.64941
 13017.6  8.7261  1.0  2.25106  2.07811  3.64326
 13018.4  8.7256  1  2.25045  2.07745  3.63668
 13019.1  8.72509  1.0  2.24965  2.07674  3.62909
 13019.9  8.72458  1  2.24902  2.07617  3.6217
 13020.6  8.72408  1.0  2.24814  2.07554  3.61282
 13021.4  8.72357  1  2.24751  2.07508  3.6039
 13022.1  8.72306  1.0  2.24668  2.07428  3.59384
 13022.9  8.72256  1  2.24613  2.07372  3.58288
 13023.6  8.72205  1.0  2.2454  2.07317  3.57083
 13024.4  8.72154  1  2.24491  2.07261  3.55747
 13025.1  8.72104  1.0  2.24401  2.07186  3.54254
 13025.9  8.72053  1  2.24328  2.07127  3.52589
 13026.6  8.72003  1.0  2.24259  2.07057  3.50699
 13027.4  8.71952  1  2.24195  2.07007  3.48543
 13028.1  8.71902  1.0  2.24129  2.06946  3.46063
 13028.9  8.71851  1  2.24052  2.06873  3.43159
 13029.6  8.718  1.0  2.23987  2.06814  3.39771
 13030.4  8.7175  1  2.23923  2.06758  3.35732
 13031.1  8.71699  1.0  2.23845  2.06706  3.30816
 13031.9  8.71649  1  2.2377  2.06627  3.24944
 13032.6  8.71598  1.0  2.23712  2.06574  3.17969
 13033.4  8.71548  1  2.2364  2.0653  3.09911
 13034.1  8.71497  1.0  2.23559  2.06452  3.00795
 13034.9  8.71446  1  2.23484  2.06374  2.91019
 13035.6  8.71396  1.0  2.23396  2.06306  2.80989
 13036.4  8.71346  1  2.23367  2.06277  2.70947
 13037.1  8.71295  1.0  2.23282  2.06192  2.60755
 13037.9  8.71244  1  2.23202  2.06131  2.50448
 13038.6  8.71194  1.0  2.23139  2.06066  2.39741
 13039.4  8.71143  1  2.23079  2.06014  2.28486
 13040.1  8.71093  1.0  2.23  2.05948  2.16457
 13040.9  8.71042  1  2.22934  2.05889  2.04057
 13041.6  8.70992  1.0  2.22859  2.05827  1.91527
 13042.4  8.70942  1  2.22784  2.05757  1.79338
 13043.1  8.70891  1.0  2.22714  2.05707  1.67776
 13043.9  8.70841  1  2.22637  2.05632  1.57173
 13044.6  8.7079  1.0  2.22573  2.05579  1.47844
 13045.4  8.7074  1  2.2251  2.05515  1.39923
 13046.1  8.70689  1.0  2.22445  2.05454  1.33587
 13046.9  8.70639  1  2.22373  2.05391  1.2887
 13047.6  8.70588  1.0  2.2229  2.05328  1.25646
 13048.4  8.70538  1  2.22224  2.05262  1.23633
 13049.1  8.70488  1.0  2.22699  2.05704  1.22733
 13049.9  8.70437  1  2.22623  2.05648  1.22033
 13050.6  8.70387  1.0  2.22563  2.05584  1.21574
 13051.4  8.70336  1  2.22458  2.05497  1.21132
 13052.1  8.70286  1.0  2.22411  2.0546  1.20603
 13052.9  8.70236  1  2.22343  2.0539  1.19882
 13053.6  8.70185  1.0  2.22287  2.0533  1.19032
 13054.4  8.70135  1  2.22183  2.05252  1.18032
 13055.1  8.70084  1.0  2.22135  2.05197  1.16946
 13055.9  8.70034  1  2.22047  2.05124  1.15753
 13056.6  8.69984  1.0  2.2198  2.05058  1.14494
 13057.4  8.69933  1  2.21918  2.05012  1.13142
 13058.1  8.69883  1.0  2.2187  2.04972  1.11847
 13058.9  8.69833  1  2.21796  2.04897  1.10621
 13059.6  8.69782  1.0  2.21735  2.04857  1.09535
 13060.4  8.69732  1  2.21674  2.04799  1.08711
 13061.1  8.69682  1.0  2.21596  2.04741  1.08214
 13061.9  8.69632  1  2.2153  2.04674  1.08012
 13062.6  8.69581  1.0  2.21463  2.04607  1.08102
 13063.4  8.69531  1  2.21391  2.0455  1.08392
 13064.1  8.69481  1.0  2.21326  2.04491  1.08876
 13064.9  8.6943  1  2.21261  2.04432  1.09419
 13065.6  8.6938  1.0  2.21185  2.04365  1.10039
 13066.4  8.6933  1  2.21103  2.04296  1.10655
 13067.1  8.69279  1.0  2.21017  2.04218  1.11191
 13067.9  8.69229  1  2.20896  2.0412  1.1163
 13068.6  8.69179  1.0  2.20684  2.03926  1.1186
 13069.4  8.69129  1  2.20515  2.03771  1.1195
 13070.1  8.69078  1.0  2.20455  2.03704  1.11942
 13070.9  8.69028  1  2.20493  2.03747  1.11884
 13071.6  8.68978  1.0  2.20569  2.03817  1.11761
 13072.4  8.68928  1  2.20536  2.03787  1.11554
 13073.1  8.68878  1.0  2.20465  2.03724  1.11288
 13073.9  8.68827  1  2.20406  2.03674  1.11077
 13074.6  8.68777  1.0  2.2035  2.03619  1.10858
 13075.4  8.68727  1  2.20266  2.03565  1.10669
 13076.1  8.68677  1.0  2.20196  2.03489  1.10449
 13076.9  8.68626  1  2.20104  2.03408  1.10236
 13077.6  8.68576  1.0  2.20002  2.03316  1.10002
 13078.4  8.68526  1  2.19851  2.03179  1.09662
 13079.1  8.68476  1.0  2.1963  2.02976  1.09322
 13079.9  8.68426  1  2.19504  2.02868  1.08993
 13080.6  8.68375  1.0  2.19477  2.02826  1.08652
 13081.4  8.68325  1  2.19535  2.02891  1.08394
 13082.1  8.68275  1.0  2.19601  2.0296  1.08109
 13082.9  8.68225  1  2.19821  2.03187  1.07909
 13083.6  8.68175  1.0  2.19678  2.03038  1.07539
 13103.9  8.66822  1  2.18412  2.01939  1.08284
 13133.9  8.64827  1.0  2.16037  1.99852  1.0814
 13163.9  8.62841  1  2.13391  1.97498  1.07767
 13193.9  8.60865  1.0  2.11277  1.9564  1.07948
 13223.9  8.58897  1  2.08916  1.93548  1.07972
 13253.9  8.56939  1.0  2.06551  1.91447  1.0754
 13283.9  8.54989  1  2.04149  1.89309  1.07235
 13313.9  8.53049  1.0  2.0172  1.87145  1.07095
 13343.9  8.51117  1  1.99264  1.84964  1.07026
 13373.9  8.49194  1.0  1.96781  1.82747  1.06847
 13403.8  8.4728  1  1.94274  1.80496  1.06767
 13433.8  8.45374  1.0  1.9175  1.7824  1.06617
 13463.8  8.43477  1  1.8922  1.75964  1.06488
 13493.8  8.41588  1.0  1.86629  1.73624  1.06286
 13523.8  8.39709  1  1.83962  1.71255  1.05974
 13553.8  8.37837  1.0  1.79884  1.67518  1.04819
 13583.8  8.35974  1  1.78834  1.66608  1.05421
 13613.8  8.34118  1.0  1.76008  1.64048  1.04991
 13643.8  8.32272  1  1.73247  1.61538  1.04566
 13673.8  8.30433  1.0  1.70389  1.58951  1.04064
 13703.8  8.28603  1  1.67461  1.56296  1.03463
 13733.8  8.26781  1.0  1.64476  1.53572  1.02814
 13763.8  8.24966  1  1.61429  1.50778  1.02117
 13793.8  8.2316  1.0  1.58244  1.47878  1.01253
 13823.8  8.21361  1  1.54963  1.44863  1.00321
 13853.8  8.19571  1.0  1.51372  1.41575  0.991313
 13883.8  8.17788  1  1.48066  1.3854  0.980771
 13913.8  8.16013  1.0  1.44425  1.35194  0.967975
 13943.7  8.14246  1  1.40666  1.31723  0.953394
 13973.7  8.12486  1.0  1.36679  1.28042  0.937156
 14003.7  8.10735  1  1.3246  1.24157  0.918552
 14033.7  8.0899  1.0  1.27977  1.19991  0.897333
 14063.7  8.07253  1  1.20081  1.12653  0.851461
 14093.7  8.05524  1.0  1.18322  1.11043  0.848393
 14123.7  8.03802  1  1.12457  1.05575  0.815331
 14153.7  8.02087  1.0  1.08363  1.01777  0.794464
 14183.7  8.0038  1  1.03023  0.9681  0.763793
 14213.7  7.98679  1.0  0.973617  0.915302  0.729742
 14243.7  7.96987  1  0.917373  0.862888  0.695202
 14263.7  7.95862  1  0.880154  0.82817  0.672007