File: MEX1_29699_processed.xdi
# XDI/1.0
# Mono.d_spacing: 3.13897
# Reference.Element: Mn
# ROI.start_bin: nan
# ROI.end_bin: nan
# Element.symbol: None
# Element.edge: None
# Processing.version: spec_processing_library v0.3.5
# Column.1: energy
# Column.2: bragg
# Column.3: count_time seconds
# Column.4: i0
# Column.5: i1
# Column.6: i2
# Describe.Column.1: energy - MEX1ES01ZEB01:CALC_ENERGY_EV
# Describe.Column.2: bragg - MEX1ES01ZEB01:BRAGG_WITH_OFFSET
# Describe.Column.3: count_time - MEX1ES01ZEB01:GATE_TIME_SET
# Describe.Column.4: i0 - MEX1ES01DAQ01:ch1:S:MeanValue_RBV
# Describe.Column.5: i1 - MEX1ES01DAQ01:ch2:S:MeanValue_RBV
# Describe.Column.6: i2 - MEX1ES01DAQ01:ch3:S:MeanValue_RBV
# Samples: [417, 417, 417, 417, 417, 417]
# ///
# Mn foil
#
# xdi from default mda2xdi preset for mex1.
#--------
#  energy   bragg   count_time   i0   i1   i2
 6338.74  18.1535  1.0  2.53697  2.5693  3.36522
 6368.75  18.065  1  2.53145  2.5887  3.45552
 6398.75  17.9774  1.0  2.52565  2.60762  3.54623
 6428.74  17.8907  1  2.51942  2.62566  3.63642
 6458.74  17.8048  1.0  2.51187  2.64195  3.72472
 6488.74  17.7197  1  2.50533  2.65896  3.81294
 6518.73  17.6355  1.0  2.49845  2.67532  3.89135
 6519.48  17.6334  1  2.498  2.67546  3.89255
 6520.23  17.6313  1.0  2.49769  2.67568  3.89361
 6520.98  17.6292  1  2.4975  2.67602  3.89486
 6521.73  17.6271  1.0  2.49705  2.67623  3.8958
 6522.48  17.6251  1  2.49668  2.67636  3.89668
 6523.23  17.623  1.0  2.49646  2.67677  3.8977
 6523.98  17.6209  1  2.49622  2.67706  3.89859
 6524.73  17.6188  1.0  2.49589  2.67728  3.89913
 6525.48  17.6167  1  2.50085  2.68313  3.90778
 6526.23  17.6146  1.0  2.50049  2.68344  3.90803
 6526.98  17.6125  1  2.50018  2.68366  3.90794
 6527.73  17.6104  1.0  2.49995  2.68402  3.90781
 6528.48  17.6083  1  2.49961  2.68419  3.90729
 6529.23  17.6062  1.0  2.49927  2.68445  3.9061
 6529.98  17.6042  1  2.49894  2.6847  3.90449
 6530.73  17.6021  1.0  2.49856  2.68495  3.90232
 6531.48  17.6  1  2.49828  2.68523  3.89936
 6532.23  17.5979  1.0  2.498  2.68549  3.89529
 6532.98  17.5958  1  2.49756  2.68565  3.88907
 6533.73  17.5937  1.0  2.49742  2.68604  3.88069
 6534.48  17.5916  1  2.49702  2.68619  3.86733
 6535.23  17.5895  1.0  2.49668  2.68644  3.84578
 6535.98  17.5875  1  2.49638  2.6867  3.80451
 6536.73  17.5854  1.0  2.4961  2.68698  3.70445
 6537.48  17.5833  1  2.49585  2.6872  3.46912
 6538.23  17.5812  1.0  2.49543  2.68743  3.21555
 6538.98  17.5791  1  2.49506  2.6876  3.06127
 6539.73  17.5771  1.0  2.4948  2.6879  2.96305
 6540.48  17.575  1  2.49443  2.68808  2.89479
 6541.23  17.5729  1.0  2.49417  2.68838  2.86945
 6541.98  17.5708  1  2.49376  2.68857  2.84977
 6542.73  17.5687  1.0  2.49346  2.68885  2.79482
 6543.48  17.5667  1  2.49328  2.68918  2.72748
 6544.23  17.5646  1.0  2.49297  2.6894  2.6702
 6544.98  17.5625  1  2.49258  2.68959  2.60819
 6545.73  17.5604  1.0  2.49221  2.6898  2.52307
 6546.48  17.5583  1  2.49185  2.68992  2.42229
 6547.23  17.5563  1.0  2.49155  2.69018  2.31622
 6547.98  17.5542  1  2.49131  2.69054  2.21078
 6548.73  17.5521  1.0  2.49095  2.69069  2.11046
 6549.48  17.55  1  2.49053  2.69086  2.01752
 6550.23  17.548  1.0  2.49018  2.69107  1.93416
 6550.98  17.5459  1  2.48992  2.69135  1.86106
 6551.73  17.5438  1.0  2.48946  2.6915  1.79766
 6552.48  17.5417  1  2.48923  2.69179  1.7421
 6553.23  17.5397  1.0  2.48888  2.69199  1.69576
 6553.98  17.5376  1  2.48857  2.69221  1.66366
 6554.73  17.5355  1.0  2.48829  2.69253  1.64812
 6555.48  17.5335  1  2.49354  2.69881  1.65185
 6556.23  17.5314  1.0  2.49326  2.69902  1.66702
 6556.98  17.5293  1  2.49293  2.69936  1.69226
 6557.73  17.5272  1.0  2.49261  2.69947  1.72031
 6558.48  17.5252  1  2.49215  2.6997  1.74818
 6559.23  17.5231  1.0  2.49203  2.7  1.77322
 6559.98  17.521  1  2.49172  2.7002  1.79222
 6560.73  17.519  1.0  2.49135  2.70042  1.80373
 6561.48  17.5169  1  2.49094  2.70056  1.80911
 6562.23  17.5148  1.0  2.4906  2.70077  1.81115
 6562.98  17.5128  1  2.49028  2.70105  1.81127
 6563.73  17.5107  1.0  2.49006  2.70137  1.80981
 6564.48  17.5086  1  2.48978  2.70173  1.80761
 6565.23  17.5066  1.0  2.48938  2.70182  1.80518
 6565.98  17.5045  1  2.48905  2.70203  1.80317
 6566.73  17.5024  1.0  2.4888  2.70234  1.80201
 6567.48  17.5004  1  2.48842  2.70253  1.80188
 6568.23  17.4983  1.0  2.48806  2.70263  1.80303
 6568.98  17.4963  1  2.48773  2.7029  1.80503
 6569.73  17.4942  1.0  2.48748  2.70316  1.80768
 6570.48  17.4921  1  2.48712  2.70336  1.81061
 6571.23  17.4901  1.0  2.48691  2.70369  1.81365
 6571.98  17.488  1  2.48655  2.70387  1.81601
 6572.73  17.486  1.0  2.4864  2.70429  1.81752
 6573.48  17.4839  1  2.48599  2.70441  1.8174
 6574.23  17.4818  1.0  2.48567  2.70463  1.816
 6574.98  17.4798  1  2.48538  2.70496  1.81382
 6575.73  17.4777  1.0  2.48503  2.7052  1.81098
 6576.48  17.4757  1  2.48468  2.70531  1.80811
 6577.23  17.4736  1.0  2.48424  2.70538  1.805
 6577.98  17.4715  1  2.484  2.70572  1.80174
 6578.73  17.4695  1.0  2.48381  2.70605  1.79818
 6579.48  17.4674  1  2.48336  2.70618  1.79407
 6580.23  17.4654  1.0  2.48319  2.70653  1.78958
 6580.98  17.4633  1  2.48294  2.70675  1.78452
 6581.73  17.4613  1.0  2.48061  2.70487  1.77794
 6582.48  17.4592  1  2.47594  2.70023  1.77015
 6583.23  17.4572  1.0  2.47925  2.70454  1.76914
 6583.98  17.4551  1  2.48079  2.70671  1.76858
 6584.73  17.4531  1.0  2.48067  2.70724  1.76909
 6585.48  17.451  1  2.48041  2.70752  1.77196
 6586.23  17.449  1.0  2.48019  2.7078  1.77747
 6586.98  17.4469  1  2.47988  2.70806  1.78493
 6587.73  17.4449  1.0  2.48544  2.71475  1.79782
 6588.48  17.4428  1  2.4851  2.71493  1.80698
 6608.73  17.3877  1.0  2.4791  2.72377  1.87208
 6638.72  17.3066  1  2.47104  2.73724  1.90161
 6668.72  17.2263  1.0  2.46246  2.74994  1.97507
 6698.72  17.1468  1  2.45358  2.76174  2.03624
 6728.72  17.068  1.0  2.44435  2.77295  2.09167
 6758.72  16.9899  1  2.43503  2.78362  2.15402
 6788.71  16.9126  1.0  2.42618  2.79436  2.23362
 6818.71  16.836  1  2.3241  2.69637  2.18974
 6848.71  16.76  1.0  2.4028  2.80803  2.33768
 6878.71  16.6848  1  2.39324  2.81687  2.40833
 6908.7  16.6103  1.0  2.38297  2.82449  2.46292
 6938.7  16.5364  1  2.37197  2.83091  2.52079
 6968.7  16.4632  1.0  2.36084  2.83661  2.58188
 6998.69  16.3906  1  2.3496  2.84186  2.64151
 7028.69  16.3187  1.0  2.33818  2.84655  2.69624
 7058.69  16.2474  1  2.32681  2.8509  2.75389
 7088.69  16.1768  1.0  2.31384  2.85292  2.81097
 7118.68  16.1067  1  2.29874  2.85192  2.86273
 7148.68  16.0373  1.0  2.28259  2.8491  2.91106
 7178.68  15.9685  1  2.26989  2.85018  2.96581
 7208.68  15.9003  1.0  2.2573  2.85104  3.02045
 7238.67  15.8327  1  2.22355  2.82465  3.04427
 7268.67  15.7656  1.0  2.21755  2.83305  3.10466
 7298.66  15.6992  1  2.21931  2.85133  3.17642
 7328.66  15.6333  1.0  2.20615  2.85001  3.22728
 7358.66  15.5679  1  2.1924  2.84754  3.27694
 7388.66  15.5031  1.0  2.17935  2.84571  3.32657
 7418.65  15.4389  1  2.16579  2.84274  3.37491
 7448.65  15.3752  1.0  2.15019  2.83689  3.42021
 7478.65  15.312  1  2.13995  2.83765  3.47353
 7508.65  15.2493  1.0  2.12621  2.83354  3.52056
 7538.64  15.1872  1  2.11271  2.82923  3.56747
 7568.64  15.1255  1.0  2.09885  2.82426  3.61324
 7598.63  15.0644  1  2.08556  2.81963  3.6596
 7628.63  15.0038  1.0  2.0709  2.813  3.70318
 7658.63  14.9436  1  2.06157  2.81308  3.75548
 7688.62  14.884  1.0  2.04705  2.80588  3.79765
 7718.62  14.8248  1  2.03378  2.80023  3.84151
 7748.62  14.7661  1.0  2.02045  2.79402  3.88474
 7768.62  14.7272  1.0  2.01101  2.78907  3.91214