File: MEX1_29688_processed.xdi
# XDI/1.0
# Mono.d_spacing: 3.13897
# Reference.Element: Ta
# ROI.start_bin: nan
# ROI.end_bin: nan
# Element.symbol: None
# Element.edge: None
# Processing.version: spec_processing_library v0.3.5
# Column.1: energy
# Column.2: bragg
# Column.3: count_time seconds
# Column.4: i0
# Column.5: i1
# Column.6: i2
# Describe.Column.1: energy - MEX1ES01ZEB01:CALC_ENERGY_EV
# Describe.Column.2: bragg - MEX1ES01ZEB01:BRAGG_WITH_OFFSET
# Describe.Column.3: count_time - MEX1ES01ZEB01:GATE_TIME_SET
# Describe.Column.4: i0 - MEX1ES01DAQ01:ch1:S:MeanValue_RBV
# Describe.Column.5: i1 - MEX1ES01DAQ01:ch2:S:MeanValue_RBV
# Describe.Column.6: i2 - MEX1ES01DAQ01:ch3:S:MeanValue_RBV
# Samples: [417, 417, 417, 417, 417, 417]
# ///
# Ta foil
#
# xdi from default mda2xdi preset for mex1.
#--------
#  energy   bragg   count_time   i0   i1   i2
 9680.38  11.7717  1.0  2.70905  2.23896  3.08588
 9710.4  11.7348  1  2.68084  2.2195  3.06959
 9740.4  11.6981  1.0  2.67276  2.21659  3.0761
 9770.4  11.6617  1  2.65427  2.20502  3.07027
 9800.39  11.6255  1.0  2.63847  2.19549  3.06661
 9830.39  11.5896  1  2.6063  2.17232  3.04182
 9860.38  11.5538  1.0  2.60205  2.1723  3.03199
 9861.12  11.553  1  2.60139  2.17191  3.03004
 9861.87  11.5521  1.0  2.60091  2.17158  3.02783
 9862.62  11.5512  1  2.6003  2.17114  3.02539
 9863.37  11.5503  1.0  2.59977  2.17081  3.02275
 9864.12  11.5494  1  2.59897  2.17026  3.01963
 9864.87  11.5485  1.0  2.5987  2.17003  3.0165
 9865.62  11.5476  1  2.59804  2.16957  3.01255
 9866.37  11.5467  1.0  2.59746  2.16922  3.00819
 9867.12  11.5458  1  2.59693  2.16885  3.00339
 9867.87  11.5449  1.0  2.59635  2.16846  2.99749
 9868.62  11.5441  1  2.59591  2.16813  2.99098
 9869.37  11.5432  1.0  2.59528  2.16767  2.98308
 9870.12  11.5423  1  2.59471  2.16724  2.9735
 9870.87  11.5414  1.0  2.59409  2.16691  2.96203
 9871.62  11.5405  1  2.59357  2.16653  2.94785
 9872.37  11.5396  1.0  2.59306  2.16619  2.93
 9873.12  11.5387  1  2.59249  2.16583  2.90703
 9873.87  11.5378  1.0  2.59182  2.16533  2.8766
 9874.62  11.5369  1  2.59122  2.16495  2.83703
 9875.37  11.5361  1.0  2.59062  2.16456  2.78365
 9876.12  11.5352  1  2.59021  2.16425  2.71243
 9876.87  11.5343  1.0  2.59564  2.16891  2.62778
 9877.62  11.5334  1  2.59504  2.16853  2.51896
 9878.37  11.5325  1.0  2.59457  2.16817  2.399
 9879.12  11.5316  1  2.594  2.16774  2.27532
 9879.87  11.5307  1.0  2.59351  2.16742  2.16212
 9880.62  11.5298  1  2.59292  2.16704  2.07898
 9881.37  11.529  1.0  2.59228  2.16657  2.04162
 9882.12  11.5281  1  2.59169  2.16615  2.05274
 9882.87  11.5272  1.0  2.59106  2.16575  2.10101
 9883.62  11.5263  1  2.59055  2.16534  2.16804
 9884.37  11.5254  1.0  2.59001  2.16506  2.23712
 9885.12  11.5245  1  2.58931  2.16459  2.29879
 9885.87  11.5236  1.0  2.58898  2.16426  2.34967
 9886.62  11.5227  1  2.58827  2.16386  2.38956
 9887.37  11.5219  1.0  2.58777  2.1634  2.41963
 9888.12  11.521  1  2.58703  2.16301  2.44217
 9888.87  11.5201  1.0  2.58662  2.16278  2.45951
 9889.62  11.5192  1  2.58609  2.16245  2.47342
 9890.37  11.5183  1.0  2.58551  2.16199  2.48567
 9891.12  11.5174  1  2.58463  2.16141  2.49691
 9891.87  11.5165  1.0  2.5843  2.16109  2.50881
 9892.62  11.5157  1  2.58358  2.16061  2.5206
 9893.37  11.5148  1.0  2.58325  2.16041  2.53285
 9894.12  11.5139  1  2.58271  2.16003  2.54402
 9894.87  11.513  1.0  2.58211  2.15971  2.55466
 9895.62  11.5121  1  2.58155  2.1593  2.56376
 9896.36  11.5112  1.0  2.58087  2.15883  2.57151
 9897.12  11.5104  1  2.58047  2.15849  2.57799
 9897.87  11.5095  1.0  2.57975  2.15804  2.58338
 9898.62  11.5086  1  2.57926  2.15772  2.58855
 9899.37  11.5077  1.0  2.57862  2.15725  2.59359
 9900.12  11.5068  1  2.5782  2.15699  2.59842
 9900.87  11.5059  1.0  2.57749  2.15655  2.60278
 9901.61  11.5051  1  2.57699  2.15613  2.60634
 9902.36  11.5042  1.0  2.57638  2.15576  2.60877
 9903.12  11.5033  1  2.57569  2.15533  2.6103
 9903.86  11.5024  1.0  2.57521  2.15493  2.61128
 9904.62  11.5015  1  2.57466  2.15453  2.61166
 9905.36  11.5006  1.0  2.57402  2.15411  2.61222
 9906.11  11.4998  1  2.57352  2.15376  2.61308
 9906.86  11.4989  1.0  2.57275  2.15321  2.61399
 9907.61  11.498  1  2.57238  2.15291  2.61576
 9908.36  11.4971  1.0  2.57174  2.15262  2.61716
 9909.11  11.4962  1  2.57133  2.15225  2.61828
 9909.86  11.4953  1.0  2.57529  2.15566  2.62338
 9910.61  11.4945  1  2.57614  2.15644  2.62486
 9911.36  11.4936  1.0  2.57579  2.15632  2.62476
 9912.11  11.4927  1  2.57494  2.15565  2.62399
 9912.86  11.4918  1.0  2.57463  2.15547  2.62365
 9913.61  11.4909  1  2.57404  2.15504  2.62324
 9914.36  11.4901  1.0  2.5735  2.15473  2.62343
 9915.11  11.4892  1  2.57289  2.15423  2.62374
 9915.86  11.4883  1.0  2.57235  2.1539  2.62477
 9916.61  11.4874  1  2.57169  2.15345  2.62646
 9917.36  11.4865  1.0  2.57125  2.1531  2.62839
 9918.11  11.4857  1  2.57062  2.15271  2.63061
 9918.86  11.4848  1.0  2.57007  2.15234  2.63286
 9919.61  11.4839  1  2.56953  2.15192  2.63477
 9920.36  11.483  1.0  2.56893  2.15154  2.63631
 9921.11  11.4821  1  2.56829  2.15117  2.63724
 9921.86  11.4813  1.0  2.56773  2.15073  2.63716
 9922.61  11.4804  1  2.56718  2.15034  2.63648
 9923.36  11.4795  1.0  2.56659  2.14993  2.63528
 9924.11  11.4786  1  2.56612  2.14956  2.63339
 9924.86  11.4777  1.0  2.56549  2.14919  2.63111
 9925.61  11.4769  1  2.56494  2.14875  2.62871
 9926.36  11.476  1.0  2.56431  2.14838  2.62631
 9927.11  11.4751  1  2.56375  2.148  2.624
 9927.86  11.4742  1.0  2.56311  2.14748  2.62157
 9928.61  11.4733  1  2.5627  2.14723  2.61952
 9929.36  11.4725  1.0  2.56207  2.14681  2.61744
 9930.11  11.4716  1  2.56164  2.14644  2.61601
 9950.37  11.4479  1.0  2.54664  2.13627  2.60795
 9980.36  11.4131  1  2.45509  2.06262  2.53263
 10010.4  11.3784  1.0  2.51699  2.11788  2.60115
 10040.4  11.3439  1  2.49866  2.1057  2.60284
 10070.3  11.3097  1.0  2.48142  2.09425  2.59083
 10100.3  11.2757  1  2.46423  2.08289  2.59054
 10130.3  11.2419  1.0  2.44694  2.07121  2.57602
 10160.3  11.2082  1  2.42991  2.05988  2.58193
 10190.3  11.1748  1.0  2.41271  2.04821  2.56799
 10220.3  11.1416  1  2.39482  2.03587  2.56662
 10250.3  11.1086  1.0  2.37777  2.02413  2.56047
 10280.3  11.0758  1  2.35311  2.00599  2.54456
 10310.3  11.0431  1.0  2.3448  2.0015  2.55057
 10340.3  11.0107  1  2.32791  1.98981  2.54451
 10370.3  10.9784  1.0  2.31136  1.97826  2.53695
 10400.3  10.9464  1  2.30035  1.97148  2.5373
 10430.3  10.9145  1.0  2.28378  1.95982  2.53455
 10460.3  10.8828  1  2.26719  1.94814  2.52523
 10490.3  10.8513  1.0  2.25078  1.93636  2.51868
 10520.3  10.82  1  2.23434  1.92479  2.51331
 10550.3  10.7889  1.0  2.21776  1.91279  2.50795
 10580.3  10.7579  1  2.20184  1.90137  2.49915
 10610.3  10.7272  1.0  2.18349  1.88782  2.48929
 10640.3  10.6966  1  2.16925  1.87778  2.48616
 10670.3  10.6662  1.0  2.14347  1.85761  2.4685
 10700.3  10.6359  1  2.13758  1.85469  2.47098
 10730.3  10.6058  1.0  2.12163  1.843  2.46355
 10760.3  10.5759  1  2.10576  1.83127  2.4562
 10790.3  10.5462  1.0  2.08968  1.81938  2.44939
 10820.3  10.5166  1  2.07452  1.80813  2.44151
 10850.3  10.4872  1.0  2.05812  1.79587  2.43174
 10880.2  10.458  1  2.04343  1.78497  2.42535
 10910.2  10.4289  1.0  2.02784  1.77328  2.41723
 10940.2  10.4  1  2.01257  1.7618  2.40938
 10970.2  10.3712  1.0  1.99709  1.75002  2.40044
 11000.2  10.3426  1  1.9818  1.73847  2.39174
 11030.2  10.3142  1.0  1.9665  1.72687  2.38331
 11060.2  10.2859  1  1.95141  1.71532  2.37467
 11090.2  10.2578  1.0  1.93429  1.70203  2.36339
 11110.2  10.2392  1.0  1.92445  1.69454  2.3553