File: MEX1_29700_processed.xdi
# XDI/1.0
# Mono.d_spacing: 3.13897
# Reference.Element: Cr
# ROI.start_bin: nan
# ROI.end_bin: nan
# Element.symbol: None
# Element.edge: None
# Processing.version: spec_processing_library v0.3.5
# Column.1: energy
# Column.2: bragg
# Column.3: count_time seconds
# Column.4: i0
# Column.5: i1
# Column.6: i2
# Describe.Column.1: energy - MEX1ES01ZEB01:CALC_ENERGY_EV
# Describe.Column.2: bragg - MEX1ES01ZEB01:BRAGG_WITH_OFFSET
# Describe.Column.3: count_time - MEX1ES01ZEB01:GATE_TIME_SET
# Describe.Column.4: i0 - MEX1ES01DAQ01:ch1:S:MeanValue_RBV
# Describe.Column.5: i1 - MEX1ES01DAQ01:ch2:S:MeanValue_RBV
# Describe.Column.6: i2 - MEX1ES01DAQ01:ch3:S:MeanValue_RBV
# Samples: [417, 417, 417, 417, 417, 417]
# ///
# Cr foil
#
# xdi from default mda2xdi preset for mex1.
#--------
#  energy   bragg   count_time   i0   i1   i2
 5788.79  19.9477  1  2.56398  2.09  0.952808
 5818.79  19.8406  1.0  2.56515  2.12053  1.01274
 5848.79  19.7346  1  2.5649  2.14974  1.07463
 5878.79  19.6297  1.0  2.56149  2.17596  1.1372
 5908.78  19.526  1  2.30773  1.98584  1.08451
 5938.78  19.4234  1.0  2.6012  2.26824  1.29179
 5968.78  19.3219  1  2.58891  2.28632  1.35372
 5969.53  19.3194  1.0  2.58842  2.2866  1.35509
 5970.28  19.3169  1  2.58778  2.28669  1.35628
 5971.03  19.3143  1.0  2.58729  2.287  1.35767
 5971.78  19.3118  1  2.58673  2.28723  1.35875
 5972.53  19.3093  1.0  2.58634  2.28756  1.36001
 5973.28  19.3068  1  2.58598  2.28802  1.36133
 5974.03  19.3043  1.0  2.58553  2.28824  1.3625
 5974.78  19.3017  1  2.58511  2.28866  1.36351
 5975.53  19.2992  1.0  2.58457  2.28887  1.36468
 5976.28  19.2967  1  2.58412  2.2892  1.36554
 5977.03  19.2942  1.0  2.58378  2.28963  1.3666
 5977.78  19.2917  1  2.58349  2.29007  1.3675
 5978.53  19.2892  1.0  2.58316  2.29046  1.36826
 5979.28  19.2866  1  2.58276  2.29084  1.36896
 5980.03  19.2841  1.0  2.58234  2.29119  1.36957
 5980.78  19.2816  1  2.58211  2.29168  1.36994
 5981.53  19.2791  1.0  2.58177  2.29208  1.37007
 5982.28  19.2766  1  2.58139  2.29244  1.36986
 5983.03  19.2741  1.0  2.5814  2.29313  1.36936
 5983.78  19.2716  1  2.5867  2.29856  1.37129
 5984.53  19.269  1.0  2.58631  2.29901  1.36929
 5985.28  19.2665  1  2.58606  2.29946  1.36596
 5986.03  19.264  1.0  2.5857  2.2999  1.36037
 5986.78  19.2615  1  2.58544  2.30039  1.35005
 5987.53  19.259  1.0  2.58513  2.30072  1.32798
 5988.28  19.2565  1  2.58471  2.30109  1.2662
 5989.03  19.254  1.0  2.58431  2.30145  1.12908
 5989.78  19.2515  1  2.58397  2.30182  1.02835
 5990.53  19.249  1.0  2.58352  2.30217  0.96281
 5991.28  19.2465  1  2.58328  2.30268  0.914125
 5992.03  19.244  1.0  2.58283  2.30304  0.870935
 5992.78  19.2415  1  2.58259  2.30351  0.836976
 5993.53  19.239  1.0  2.58233  2.30403  0.81557
 5994.28  19.2365  1  2.58189  2.30432  0.806889
 5995.03  19.234  1.0  2.58174  2.30488  0.807225
 5995.78  19.2315  1  2.58139  2.30532  0.80564
 5996.53  19.229  1.0  2.58109  2.30578  0.784914
 5997.28  19.2265  1  2.58077  2.3062  0.737549
 5998.03  19.224  1.0  2.58043  2.30656  0.679462
 5998.78  19.2215  1  2.58013  2.30703  0.624627
 5999.53  19.219  1.0  2.57965  2.30738  0.577143
 6000.28  19.2165  1  2.57952  2.30785  0.540549
 6001.03  19.214  1.0  2.57913  2.30822  0.512591
 6001.78  19.2115  1  2.57883  2.30866  0.489254
 6002.53  19.209  1.0  2.57845  2.30912  0.468956
 6003.28  19.2065  1  2.57812  2.30947  0.450965
 6004.03  19.204  1.0  2.57787  2.30996  0.434346
 6004.78  19.2015  1  2.57758  2.31039  0.41785
 6005.53  19.199  1.0  2.57724  2.31077  0.401367
 6006.28  19.1965  1  2.57703  2.31134  0.386117
 6007.03  19.194  1.0  2.57667  2.3117  0.37193
 6007.78  19.1916  1  2.57646  2.31217  0.357306
 6008.53  19.1891  1.0  2.57617  2.31266  0.345685
 6009.28  19.1866  1  2.57597  2.31312  0.343494
 6010.02  19.1841  1.0  2.57578  2.31367  0.353349
 6010.78  19.1816  1  2.57544  2.31414  0.371406
 6011.53  19.1791  1.0  2.57528  2.31464  0.392482
 6012.28  19.1766  1  2.57518  2.31533  0.41184
 6013.03  19.1741  1.0  2.57499  2.31581  0.426137
 6013.77  19.1717  1  2.57465  2.31623  0.433756
 6014.52  19.1692  1.0  2.57448  2.3168  0.434986
 6015.27  19.1667  1  2.57426  2.31723  0.431159
 6016.02  19.1642  1.0  2.58017  2.32337  0.424804
 6016.77  19.1617  1  2.58006  2.3239  0.41592
 6017.52  19.1592  1.0  2.5798  2.32441  0.407493
 6018.27  19.1568  1  2.57952  2.32487  0.401538
 6019.02  19.1543  1.0  2.57942  2.32547  0.3989
 6019.77  19.1518  1  2.57909  2.32589  0.399425
 6020.52  19.1493  1.0  2.57901  2.32643  0.402907
 6021.27  19.1469  1  2.57878  2.32691  0.40774
 6022.02  19.1444  1.0  2.57851  2.3275  0.412656
 6022.77  19.1419  1  2.57832  2.32792  0.415856
 6023.52  19.1394  1.0  2.5781  2.32852  0.416382
 6024.27  19.1369  1  2.57777  2.32889  0.413824
 6025.02  19.1345  1.0  2.57768  2.32954  0.4089
 6025.77  19.132  1  2.57736  2.32995  0.403175
 6026.52  19.1295  1.0  2.57717  2.33048  0.397989
 6027.27  19.1271  1  2.57698  2.33103  0.394192
 6028.02  19.1246  1.0  2.57671  2.33153  0.39133
 6028.77  19.1221  1  2.57644  2.33201  0.389086
 6029.52  19.1196  1.0  2.57621  2.33247  0.387284
 6030.27  19.1172  1  2.576  2.333  0.386011
 6031.02  19.1147  1.0  2.5759  2.33356  0.385499
 6031.77  19.1122  1  2.57566  2.33401  0.385737
 6032.52  19.1098  1.0  2.57545  2.33457  0.386307
 6033.27  19.1073  1  2.5752  2.33501  0.386726
 6034.02  19.1048  1.0  2.57488  2.33541  0.386737
 6034.77  19.1024  1  2.57474  2.33603  0.386065
 6035.52  19.0999  1.0  2.57452  2.33652  0.384657
 6036.27  19.0974  1  2.57421  2.33697  0.38275
 6037.02  19.095  1.0  2.57403  2.33749  0.380629
 6037.77  19.0925  1  2.57381  2.33802  0.378646
 6038.52  19.09  1.0  2.57359  2.3384  0.377719
 6058.77  19.0238  1  2.57131  2.35518  0.468583
 6088.77  18.9265  1.0  2.56801  2.37983  0.482755
 6118.77  18.8302  1  2.56477  2.40429  0.52019
 6148.76  18.7349  1.0  2.56105  2.42787  0.530789
 6178.76  18.6406  1  2.55696  2.45086  0.563725
 6208.76  18.5472  1.0  2.55266  2.47326  0.639542
 6238.76  18.4548  1  2.54781  2.49491  0.608115
 6268.75  18.3633  1.0  2.54301  2.5161  0.70604
 6298.75  18.2728  1  2.53766  2.53662  0.754277
 6328.75  18.1831  1.0  2.5318  2.55614  0.766135
 6358.75  18.0944  1  2.52545  2.57487  0.827516
 6388.75  18.0065  1.0  2.52483  2.59909  0.888409
 6418.74  17.9195  1  2.51806  2.61666  0.931463
 6448.74  17.8333  1.0  2.51167  2.63433  0.969916
 6478.74  17.748  1  2.50257  2.64866  1.03239
 6508.73  17.6635  1.0  2.49525  2.66455  1.08144
 6538.73  17.5798  1  2.48745  2.67963  1.14085
 6568.73  17.4969  1.0  2.47916  2.69371  1.18738
 6598.73  17.4149  1  2.47025  2.70682  1.24873
 6628.73  17.3335  1.0  2.46157  2.71969  1.30287
 6658.72  17.253  1  2.45252  2.73183  1.36541
 6688.72  17.1732  1.0  2.44301  2.74292  1.42227
 6718.72  17.0942  1  2.43305  2.75331  1.47778
 6748.72  17.0159  1.0  2.42313  2.76322  1.53977
 6778.71  16.9383  1  2.41325  2.77267  1.60387
 6808.71  16.8614  1.0  2.23316  2.58462  1.55064
 6838.71  16.7853  1  2.38805  2.78451  1.72891
 6868.71  16.7098  1.0  2.37866  2.79354  1.79278
 6898.7  16.635  1  2.3676  2.80016  1.85931
 6928.7  16.5609  1.0  2.3564  2.80621  1.92836
 6958.7  16.4875  1  2.34492  2.81154  1.99885
 6988.7  16.4147  1.0  2.33297  2.81597  2.06568
 7018.69  16.3426  1  2.32111  2.82006  2.13464
 7048.69  16.2711  1.0  2.3093  2.82381  2.20525
 7078.69  16.2003  1  2.29537  2.82461  2.27576
 7108.68  16.13  1.0  2.28356  2.82763  2.34871
 7138.68  16.0604  1  2.26366  2.82008  2.38794
 7168.68  15.9914  1.0  2.25054  2.82063  2.46476
 7198.68  15.923  1  2.23704  2.82035  2.53586
 7218.67  15.8777  1  2.22814  2.82003  2.58507