File: MEX1_29701_processed.xdi
# XDI/1.0
# Mono.d_spacing: 3.13897
# Reference.Element: V
# ROI.start_bin: nan
# ROI.end_bin: nan
# Element.symbol: None
# Element.edge: None
# Processing.version: spec_processing_library v0.3.5
# Column.1: energy
# Column.2: bragg
# Column.3: count_time seconds
# Column.4: i0
# Column.5: i1
# Column.6: i2
# Describe.Column.1: energy - MEX1ES01ZEB01:CALC_ENERGY_EV
# Describe.Column.2: bragg - MEX1ES01ZEB01:BRAGG_WITH_OFFSET
# Describe.Column.3: count_time - MEX1ES01ZEB01:GATE_TIME_SET
# Describe.Column.4: i0 - MEX1ES01DAQ01:ch1:S:MeanValue_RBV
# Describe.Column.5: i1 - MEX1ES01DAQ01:ch2:S:MeanValue_RBV
# Describe.Column.6: i2 - MEX1ES01DAQ01:ch3:S:MeanValue_RBV
# Samples: [417, 417, 417, 417, 417, 417]
# ///
# V foil
#
# xdi from default mda2xdi preset for mex1.
#--------
#  energy   bragg   count_time   i0   i1   i2
 5264.83  22.0315  1.0  2.44407  1.47431  2.14791
 5294.83  21.9002  1  2.45387  1.5109  2.27303
 5324.83  21.7705  1.0  2.46585  1.54912  2.4051
 5354.82  21.6423  1  2.47689  1.58695  2.54109
 5384.82  21.5157  1.0  2.48739  1.62454  2.68067
 5414.82  21.3907  1  2.49352  1.65951  2.81923
 5444.82  21.2671  1.0  2.50444  1.69772  2.95904
 5445.57  21.264  1  2.50474  1.69867  2.96226
 5446.32  21.2609  1.0  2.50472  1.69941  2.96483
 5447.07  21.2579  1  2.50481  1.70024  2.9676
 5447.82  21.2548  1.0  2.50484  1.70103  2.97006
 5448.57  21.2517  1  2.50502  1.70192  2.9729
 5449.32  21.2487  1.0  2.50507  1.70274  2.97525
 5450.07  21.2456  1  2.50527  1.7036  2.97765
 5450.82  21.2425  1.0  2.50518  1.70436  2.97973
 5451.57  21.2395  1  2.50538  1.70525  2.98182
 5452.32  21.2364  1.0  2.50546  1.7061  2.98368
 5453.07  21.2333  1  2.50559  1.70696  2.98533
 5453.82  21.2303  1.0  2.50561  1.70774  2.98682
 5454.57  21.2272  1  2.50581  1.70866  2.98796
 5455.32  21.2242  1.0  2.50577  1.70942  2.9884
 5456.07  21.2211  1  2.5059  1.71025  2.98864
 5456.82  21.218  1.0  2.50602  1.71111  2.98806
 5457.57  21.215  1  2.50613  1.71194  2.98661
 5458.32  21.2119  1.0  2.50616  1.71271  2.98361
 5459.07  21.2089  1  2.50621  1.71348  2.97882
 5459.82  21.2058  1.0  2.50627  1.71437  2.97123
 5460.57  21.2028  1  2.50638  1.71522  2.95884
 5461.32  21.1997  1.0  2.50648  1.716  2.9371
 5462.07  21.1967  1  2.50661  1.71688  2.89433
 5462.82  21.1936  1.0  2.50671  1.71772  2.78788
 5463.57  21.1906  1  2.50668  1.71847  2.43487
 5464.32  21.1875  1.0  2.50682  1.71933  1.88643
 5465.07  21.1845  1  2.50692  1.72016  1.9387
 5465.82  21.1814  1.0  2.50705  1.721  2.01993
 5466.57  21.1784  1  2.50706  1.72182  1.93788
 5467.32  21.1753  1.0  2.50716  1.72268  1.81124
 5468.07  21.1723  1  2.50721  1.72339  1.69158
 5468.82  21.1692  1.0  2.50718  1.72421  1.60809
 5469.57  21.1662  1  2.51077  1.72744  1.56781
 5470.32  21.1632  1.0  2.51347  1.73005  1.55235
 5471.07  21.1601  1  2.51362  1.73095  1.53485
 5471.82  21.1571  1.0  2.5136  1.73169  1.47567
 5472.57  21.154  1  2.51369  1.73255  1.359
 5473.32  21.151  1.0  2.51378  1.73338  1.23178
 5474.07  21.148  1  2.51384  1.73425  1.12816
 5474.82  21.1449  1.0  2.51389  1.73505  1.04926
 5475.57  21.1419  1  2.51405  1.73587  0.984853
 5476.32  21.1389  1.0  2.5141  1.73671  0.926658
 5477.07  21.1358  1  2.51423  1.73755  0.873455
 5477.82  21.1328  1.0  2.51417  1.73831  0.825973
 5478.57  21.1298  1  2.51429  1.73913  0.783513
 5479.32  21.1267  1.0  2.51423  1.73992  0.744518
 5480.07  21.1237  1  2.51443  1.74079  0.710383
 5480.82  21.1207  1.0  2.51444  1.74162  0.683111
 5481.57  21.1176  1  2.51442  1.74239  0.656438
 5482.32  21.1146  1.0  2.51454  1.74317  0.631646
 5483.07  21.1116  1  2.51462  1.74401  0.62277
 5483.82  21.1086  1.0  2.51466  1.7448  0.638368
 5484.57  21.1055  1  2.51476  1.74567  0.673212
 5485.32  21.1025  1.0  2.51481  1.74647  0.714959
 5486.07  21.0995  1  2.51494  1.74732  0.753015
 5486.81  21.0965  1.0  2.51508  1.74814  0.779288
 5487.57  21.0935  1  2.51505  1.74893  0.790752
 5488.31  21.0904  1.0  2.51518  1.74981  0.788325
 5489.06  21.0874  1  2.51516  1.75055  0.775107
 5489.81  21.0844  1.0  2.51536  1.75145  0.755285
 5490.56  21.0814  1  2.5154  1.75221  0.734248
 5491.31  21.0784  1.0  2.51541  1.75305  0.717411
 5492.06  21.0753  1  2.51563  1.75398  0.708373
 5492.81  21.0723  1.0  2.51557  1.75471  0.708013
 5493.56  21.0693  1  2.51573  1.75557  0.715093
 5494.31  21.0663  1.0  2.51573  1.75629  0.726314
 5495.06  21.0633  1  2.51583  1.75716  0.737073
 5495.81  21.0603  1.0  2.51575  1.75793  0.743293
 5496.56  21.0573  1  2.51587  1.75876  0.742504
 5497.31  21.0543  1.0  2.51591  1.75958  0.735152
 5498.06  21.0513  1  2.51601  1.76039  0.724207
 5498.81  21.0482  1.0  2.51609  1.76122  0.71329
 5499.56  21.0452  1  2.51623  1.76209  0.704235
 5500.31  21.0422  1.0  2.51623  1.76284  0.697105
 5501.06  21.0392  1  2.51619  1.76361  0.690843
 5501.81  21.0362  1.0  2.5163  1.76443  0.685535
 5502.56  21.0332  1  2.51636  1.76531  0.681488
 5503.31  21.0302  1.0  2.5164  1.76607  0.679387
 5504.06  21.0272  1  2.52253  1.77113  0.679683
 5504.81  21.0242  1.0  2.52251  1.77186  0.678866
 5505.56  21.0212  1  2.52261  1.77272  0.677017
 5506.31  21.0182  1.0  2.52264  1.77351  0.673483
 5507.06  21.0152  1  2.52275  1.77434  0.668262
 5507.81  21.0122  1.0  2.52271  1.77512  0.661977
 5508.56  21.0092  1  2.52277  1.77596  0.656156
 5509.31  21.0062  1.0  2.52276  1.77674  0.652236
 5510.06  21.0032  1  2.52286  1.77756  0.651038
 5510.81  21.0002  1.0  2.52285  1.77832  0.652344
 5511.56  20.9972  1  2.52294  1.77917  0.655582
 5512.31  20.9943  1.0  2.52297  1.77996  0.660119
 5513.06  20.9913  1  2.52301  1.78079  0.664761
 5513.81  20.9883  1.0  2.52298  1.78153  0.669846
 5514.56  20.9853  1  2.523  1.78225  0.674082
 5534.81  20.9049  1.0  2.5272  1.80608  0.805911
 5564.81  20.787  1  2.53345  1.84126  0.69615
 5594.81  20.6704  1.0  2.53907  1.87597  0.961927
 5624.81  20.5552  1  2.54378  1.90994  0.873259
 5654.8  20.4412  1.0  2.54823  1.94371  1.07365
 5684.8  20.3286  1  2.55185  1.97675  1.10875
 5714.8  20.2172  1.0  2.55492  2.00927  1.20748
 5744.8  20.1071  1  2.55728  2.04115  1.29942
 5774.79  19.9981  1.0  2.55903  2.07233  1.33777
 5804.79  19.8904  1  2.55995  2.10267  1.4422
 5834.79  19.7839  1.0  2.55954  2.13176  1.53975
 5864.79  19.6785  1  2.55714  2.15885  1.61233
 5894.79  19.5743  1.0  2.54658  2.17882  1.68978
 5924.78  19.4711  1  2.48822  2.15674  1.7443
 5954.78  19.3691  1.0  2.60081  2.28359  1.92308
 5984.78  19.2682  1  2.57318  2.28779  1.9873
 6014.78  19.1683  1.0  2.56564  2.30933  2.08195
 6044.77  19.0695  1  2.56157  2.33357  2.17859
 6074.77  18.9718  1.0  2.55684  2.35684  2.27785
 6104.77  18.875  1  2.55288  2.38062  2.37409
 6134.77  18.7792  1.0  2.54906  2.40411  2.47138
 6164.76  18.6845  1  2.54423  2.42639  2.57576
 6194.76  18.5907  1.0  2.53918  2.44816  2.68211
 6224.76  18.4978  1  2.53409  2.46945  2.78879
 6254.76  18.4059  1.0  2.52857  2.49004  2.89542
 6284.75  18.3149  1  2.52278  2.51004  3.00516
 6314.75  18.2249  1.0  2.51657  2.5292  3.11746
 6344.75  18.1357  1  2.51528  2.55304  3.23907
 6374.75  18.0474  1.0  2.50822  2.57074  3.35252
 6404.74  17.96  1  2.50128  2.5881  3.46779
 6434.74  17.8734  1.0  2.49395  2.60473  3.58463
 6464.74  17.7877  1  2.47552  2.60923  3.68727
 6494.74  17.7028  1.0  2.47658  2.63395  3.8198
 6524.73  17.6188  1  2.46847  2.64858  3.93961
 6554.73  17.5355  1.0  2.45927  2.66173  4.05835
 6584.73  17.4531  1  2.4499  2.67415  4.17746
 6614.73  17.3714  1.0  2.43998  2.68572  4.2967
 6644.72  17.2905  1  2.43063  2.69745  4.41838
 6674.72  17.2103  1.0  2.42079  2.70816  4.53902
 6694.72  17.1573  1.0  2.41384  2.71475  4.6198