File: MEX1_29692_processed.xdi
# XDI/1.0
# Mono.d_spacing: 3.13897
# Reference.Element: Pt
# ROI.start_bin: nan
# ROI.end_bin: nan
# Element.symbol: None
# Element.edge: None
# Processing.version: spec_processing_library v0.3.5
# Column.1: energy
# Column.2: bragg
# Column.3: count_time seconds
# Column.4: i0
# Column.5: i1
# Column.6: i2
# Describe.Column.1: energy - MEX1ES01ZEB01:CALC_ENERGY_EV
# Describe.Column.2: bragg - MEX1ES01ZEB01:BRAGG_WITH_OFFSET
# Describe.Column.3: count_time - MEX1ES01ZEB01:GATE_TIME_SET
# Describe.Column.4: i0 - MEX1ES01DAQ01:ch1:S:MeanValue_RBV
# Describe.Column.5: i1 - MEX1ES01DAQ01:ch2:S:MeanValue_RBV
# Describe.Column.6: i2 - MEX1ES01DAQ01:ch3:S:MeanValue_RBV
# Samples: [417, 417, 417, 417, 417, 417]
# ///
# Pt foil
#
# xdi from default mda2xdi preset for mex1.
#--------
#  energy   bragg   count_time   i0   i1   i2
 11363.1  10.0089  1  3.57193  3.174  2.6271
 11393.2  9.98221  1.0  3.61452  3.2148  2.68269
 11423.2  9.95573  1  3.58786  3.19394  2.6858
 11453.2  9.92939  1.0  3.55877  3.17077  2.68663
 11483.2  9.90319  1  3.53079  3.14863  2.68527
 11513.2  9.87713  1.0  3.503  3.12661  2.67362
 11543.2  9.85121  1  3.4752  3.10424  2.58615
 11543.9  9.85059  1.0  3.47444  3.10372  2.57944
 11544.6  9.84994  1  3.47354  3.10286  2.57181
 11545.4  9.8493  1.0  3.47243  3.10216  2.56352
 11546.1  9.84865  1  3.47169  3.10146  2.55455
 11546.9  9.848  1.0  3.47093  3.10077  2.54464
 11547.6  9.84736  1  3.47003  3.10013  2.53344
 11548.4  9.84671  1.0  3.46903  3.09943  2.52133
 11549.1  9.84607  1  3.46806  3.09863  2.50744
 11549.9  9.84542  1.0  3.46735  3.09791  2.49204
 11550.6  9.84477  1  3.46652  3.09735  2.47434
 11551.4  9.84413  1.0  3.46544  3.09645  2.45426
 11552.1  9.84348  1  3.46465  3.09568  2.4312
 11552.9  9.84284  1.0  3.46384  3.09503  2.40495
 11553.6  9.84219  1  3.46286  3.09423  2.37427
 11554.4  9.84155  1.0  3.46192  3.09342  2.33858
 11555.1  9.8409  1  3.46092  3.09267  2.29649
 11555.9  9.84026  1.0  3.4602  3.09199  2.24645
 11556.6  9.83961  1  3.4593  3.09137  2.18622
 11557.4  9.83897  1.0  3.45827  3.09068  2.11262
 11558.1  9.83832  1  3.45771  3.08995  2.02209
 11558.9  9.83768  1.0  3.45669  3.08933  1.91078
 11559.6  9.83703  1  3.4558  3.08855  1.77238
 11560.4  9.83639  1.0  3.45501  3.08782  1.60356
 11561.1  9.83574  1  3.46202  3.0942  1.40645
 11561.9  9.8351  1.0  3.46107  3.0935  1.18172
 11562.6  9.83446  1  3.46008  3.09269  0.955692
 11563.4  9.83381  1.0  3.45934  3.09204  0.758656
 11564.1  9.83317  1  3.45835  3.09114  0.619634
 11564.9  9.83252  1.0  3.45742  3.09047  0.546824
 11565.6  9.83188  1  3.45666  3.08979  0.529134
 11566.4  9.83124  1.0  3.45582  3.08907  0.546728
 11567.1  9.83059  1  3.45491  3.08846  0.581408
 11567.9  9.82995  1.0  3.45391  3.08748  0.620954
 11568.6  9.82931  1  3.45297  3.0869  0.658454
 11569.4  9.82866  1.0  3.45224  3.08625  0.690457
 11570.1  9.82802  1  3.45127  3.08545  0.716585
 11570.9  9.82738  1.0  3.45038  3.08475  0.738222
 11571.6  9.82673  1  3.44953  3.08405  0.757406
 11572.4  9.82609  1.0  3.44871  3.08318  0.77384
 11573.1  9.82545  1  3.44804  3.0825  0.786514
 11573.9  9.8248  1.0  3.44693  3.08186  0.794285
 11574.625  9.82416  1  3.44594  3.08102  0.796484
 11575.4  9.82352  1.0  3.44521  3.08036  0.793648
 11576.125  9.82288  1  3.44444  3.0797  0.786302
 11576.9  9.82223  1.0  3.44343  3.07908  0.776244
 11577.6  9.82159  1  3.44245  3.07823  0.765543
 11578.375  9.82095  1.0  3.44167  3.07741  0.75621
 11579.1  9.82031  1  3.44073  3.07676  0.750745
 11579.9  9.81966  1.0  3.43988  3.07618  0.750469
 11580.625  9.81902  1  3.43903  3.07532  0.756061
 11581.4  9.81838  1.0  3.43819  3.07476  0.766638
 11582.125  9.81774  1  3.4373  3.07401  0.779611
 11582.875  9.81709  1.0  3.43644  3.07326  0.791684
 11583.625  9.81645  1  3.43562  3.07254  0.800155
 11584.375  9.81581  1.0  3.43474  3.07177  0.804613
 11585.125  9.81517  1  3.43369  3.07104  0.805824
 11585.875  9.81453  1.0  3.43295  3.07041  0.805155
 11586.6  9.81389  1  3.43221  3.06973  0.802981
 11587.4  9.81325  1.0  3.43131  3.069  0.798647
 11588.1  9.8126  1  3.43032  3.06808  0.791367
 11588.875  9.81196  1.0  3.42943  3.06749  0.780693
 11589.6  9.81132  1  3.42859  3.06679  0.766934
 11590.4  9.81068  1.0  3.43565  3.07335  0.752918
 11591.1  9.81004  1  3.43481  3.07251  0.736693
 11591.9  9.8094  1.0  3.43383  3.07187  0.722001
 11592.6  9.80876  1  3.43315  3.07107  0.710961
 11593.4  9.80812  1.0  3.43241  3.07044  0.705507
 11594.1  9.80748  1  3.43146  3.06975  0.705751
 11594.9  9.80684  1.0  3.43046  3.06892  0.710782
 11595.6  9.8062  1  3.42955  3.0682  0.719202
 11596.4  9.80556  1.0  3.42873  3.0675  0.7292
 11597.1  9.80492  1  3.42781  3.06672  0.739195
 11597.9  9.80428  1.0  3.42696  3.06596  0.748696
 11598.6  9.80363  1  3.42599  3.06533  0.756737
 11599.4  9.80299  1.0  3.42533  3.0647  0.763139
 11600.1  9.80235  1  3.42437  3.06392  0.767383
 11600.9  9.80172  1.0  3.42359  3.0632  0.770193
 11601.6  9.80107  1  3.42259  3.06247  0.772521
 11602.4  9.80044  1.0  3.42164  3.06176  0.775054
 11603.1  9.7998  1  3.42096  3.06117  0.778328
 11603.9  9.79916  1.0  3.42013  3.0604  0.782606
 11604.6  9.79852  1  3.41933  3.05985  0.78722
 11605.4  9.79788  1.0  3.41837  3.05899  0.791693
 11606.1  9.79724  1  3.41762  3.05836  0.795223
 11606.9  9.7966  1.0  3.41666  3.05769  0.79722
 11607.6  9.79596  1  3.41584  3.05695  0.797213
 11608.4  9.79532  1.0  3.41499  3.05627  0.795294
 11609.1  9.79468  1  3.41417  3.05552  0.791611
 11609.9  9.79404  1.0  3.41343  3.05487  0.786578
 11610.6  9.7934  1  3.41222  3.05401  0.780511
 11611.4  9.79277  1.0  3.41156  3.05339  0.773893
 11612.1  9.79213  1  3.41074  3.0528  0.767053
 11612.9  9.79149  1.0  3.40998  3.05205  0.760016
 11633.1  9.77426  1  3.39135  3.03724  0.754436
 11663.1  9.74888  1.0  3.35191  3.00432  0.752605
 11693.1  9.72362  1  3.33749  2.9938  0.758164
 11723.1  9.6985  1.0  3.31086  2.97222  0.77128
 11753.1  9.67351  1  3.27651  2.94385  0.750491
 11783.1  9.64865  1.0  3.25765  2.92924  0.792802
 11813.1  9.62392  1  3.22375  2.901  0.754384
 11843.1  9.59932  1.0  3.2046  2.88599  0.796472
 11873.1  9.57483  1  3.17897  2.8651  0.79466
 11903.1  9.55048  1.0  3.15115  2.8421  0.776627
 11933.1  9.52626  1  3.1269  2.82232  0.800598
 11963.1  9.50216  1.0  3.10131  2.80138  0.801313
 11993.1  9.47816  1  3.0825  2.78634  0.794086
 12023.1  9.45429  1.0  3.05682  2.76513  0.821742
 12053.1  9.43055  1  3.02991  2.74268  0.812556
 12083.1  9.40693  1.0  3.00571  2.72276  0.810577
 12113  9.38344  1  2.98013  2.70158  0.825203
 12143.1  9.36003  1.0  2.95338  2.67918  0.833373
 12173.1  9.33677  1  2.93144  2.66134  0.828527
 12203.1  9.31361  1.0  2.90554  2.6394  0.831099
 12233  9.29057  1  2.87708  2.61527  0.841957
 12263  9.26766  1.0  2.8331  2.57719  0.844921
 12293  9.24484  1  2.78217  2.53261  0.831617
 12323  9.22214  1.0  2.79137  2.54252  0.843287
 12353  9.19955  1  2.76605  2.52105  0.854989
 12383  9.17708  1.0  2.7434  2.502  0.860458
 12413  9.1547  1  2.71768  2.48018  0.861886
 12443  9.13245  1.0  2.69348  2.45968  0.86105
 12473  9.1103  1  2.67041  2.4402  0.866491
 12503  9.08827  1.0  2.64672  2.41994  0.874678
 12533  9.06633  1  2.6232  2.39984  0.878572
 12563  9.0445  1.0  2.5996  2.37954  0.88001
 12593  9.02278  1  2.57546  2.35915  0.880498
 12623  9.00116  1.0  2.55032  2.33733  0.884718
 12653  8.97964  1  2.52677  2.31726  0.890138
 12683  8.95823  1.0  2.50256  2.29635  0.89399
 12713  8.93692  1  2.47862  2.27569  0.894822
 12743  8.91571  1.0  2.45533  2.25559  0.896503
 12773  8.8946  1  2.4316  2.23518  0.899457
 12793  8.88059  1  2.41595  2.22152  0.90149